SPECTRUM - MS,
636.RAW,
FTMS + p ESI Full ms [50.00-1000.00],
Scan #: 1-40,
RT: 0.01-1.97,
AV: 40,
m/z,Intensity

50.007,139.6
50.0077,187.3
50.0102,40.5
50.0231,562.6
50.0267,156.5
50.0341,19.2
50.0352,192.7
50.0365,90.6
50.0543,55.4
50.0604,58.1
50.0938,562.2
50.0954,40.7
50.1232,81.9
50.1241,312.9
50.1247,129.9
50.1249,133
50.1315,207.2
50.14,47.5
50.1526,480.3
50.167,155.3
50.168,49.9
50.1689,171
50.1747,171.8
50.1896,63.8
50.1904,712.9
50.2494,41.5
50.2615,727.2
50.2668,15.8
50.2678,67.7
50.2689,108.6
50.2899,382.5
50.2913,284.2
50.2932,63.9
50.2977,516.3
50.3012,72
50.3062,41.3
50.343,102.9
50.3502,44.7
50.3512,38.2
50.3566,176.6
50.3627,501.3
50.3645,229.3
50.3825,326.3
50.3829,339.5
50.418,132.8
50.4352,51.8
50.4525,627.3
50.4601,44.9
50.4626,43.7
50.4639,144.7
50.4707,205.5
50.4774,196.9
50.4822,40.9
50.487,39.4
50.5115,637.6
50.5168,175.8
50.5313,124.9
50.5332,77.4
50.5538,138.9
50.5714,448.4
50.5839,165.3
50.5941,241.7
50.6046,512.8
50.6149,50.5
50.6254,344.2
50.6306,46.1
50.6402,163.5
50.6447,47.8
50.6556,42.8
50.6558,63.4
50.6632,54.2
50.6763,579.1
50.6989,63.9
50.7082,95.3
50.7107,108
50.718,74.3
50.722,537
50.7223,512.5
50.7589,22
50.7675,148
50.7721,120.4
50.7788,76.6
50.7845,16.5
50.7881,296.3
50.7924,577.8
50.7971,265.6
50.8044,580.2
50.82,264.9
50.8264,169.5
50.8268,461.2
50.8287,510.6
50.8357,42.7
50.8364,44.3
50.8738,295.9
50.8747,65.3
50.8834,169.4
50.9063,57
50.9105,531.1
50.9148,456.6
50.9182,890.6
50.9462,46.3
50.9575,578.7
50.9636,123.9
50.9685,561
50.9733,306.7
50.9773,166.7
50.978,267
50.9867,303.6
50.9946,240.1
51.0179,154.5
51.023,40.6
51.0408,18
51.0567,16.5
51.0756,58.8
51.0773,54.5
51.0812,339.4
51.0863,511
51.1009,75.6
51.1217,525.4
51.1274,585
51.1411,851.2
51.1492,597.1
51.1598,697.9
51.1635,226.6
51.1715,467.6
51.2023,182.1
51.2029,163.7
51.2039,477.1
51.2126,107.9
51.2298,15.2
51.2388,77.8
51.2413,69.6
51.2574,106.4
51.2713,117.4
51.2728,132.8
51.299,94.8
51.3153,257.4
51.3224,86.1
51.3236,141.2
51.3258,324.4
51.3596,148.7
51.3698,106.7
51.3758,139.4
51.3881,110.5
51.3904,17.3
51.4043,282.2
51.4065,54.8
51.4165,275.8
51.422,20.6
51.4476,49.7
51.4494,519.6
51.4498,579
51.453,19.2
51.4658,39.1
51.4721,93.9
51.4731,59.4
51.4787,514.5
51.4921,64.3
51.4986,66.2
51.4989,272.6
51.5212,48.4
51.5221,41.2
51.5266,605.4
51.5586,554.6
51.5681,96
51.5689,573.7
51.5871,355.1
51.5956,63.8
51.5979,249
51.6136,112.9
51.6487,381
51.659,79.1
51.6672,51.5
51.6688,561.7
51.6843,96.7
51.6854,106.6
51.6971,452.7
51.6984,53.3
51.7093,129.6
51.7098,19.2
51.7215,83.1
51.7284,65.7
51.7346,39.6
51.7356,121.7
51.736,50.8
51.7509,397.3
51.7602,55.6
51.7619,65.8
51.7653,63.1
51.7788,72.7
51.7902,55
51.7929,50.8
51.796,162.2
51.7981,559.1
51.8065,52
51.8156,131.4
51.8542,641
51.8611,52.6
51.862,54.8
51.8737,53.7
51.8757,415.4
51.8818,58.7
51.8869,83.9
51.8904,56
51.901,93
51.9042,64
51.9131,204.9
51.954,72.8
51.9737,167.4
51.975,82.8
51.991,68.6
51.9939,160.5
51.9992,381.4
52.0008,71.5
52.0026,55.6
52.0118,296.1
52.0136,111.8
52.0328,65.2
52.0436,511.3
52.0476,49.2
52.0535,40.4
52.0585,201.4
52.0731,172.5
52.0763,17.4
52.078,278.9
52.0802,462.1
52.0805,49.4
52.107,109.8
52.1166,114.6
52.1178,81.9
52.1221,17
52.1252,18.9
52.1328,213
52.1335,148.8
52.1338,162.2
52.1556,17.3
52.1702,500.4
52.193,21.2
52.1988,24.4
52.2038,321.1
52.2077,46.8
52.2096,105.7
52.2191,492.6
52.221,88.6
52.231,182.1
52.2526,115.6
52.2529,119.3
52.2565,164.3
52.2582,76.1
52.2686,273.8
52.2749,39.6
52.2991,47.9
52.3026,62.4
52.3108,121.3
52.3218,19.3
52.3308,256
52.3372,78.6
52.3412,64.2
52.351,17.5
52.3668,74.8
52.3715,102.3
52.3744,53.9
52.3818,732.4
52.3946,118.4
52.4008,40.5
52.4155,130.9
52.4209,37.5
52.4423,160.4
52.4496,43.4
52.4551,85.4
52.4663,42.1
52.4671,58.2
52.4724,190.2
52.4785,63.2
52.4843,18.3
52.5025,254.4
52.5079,49.1
52.5266,584.8
52.5276,53.5
52.5348,120.6
52.5402,644.8
52.5429,129.9
52.5478,328.1
52.5482,155.2
52.5537,122.4
52.5596,105
52.5911,40.9
52.6087,431.5
52.6103,72.4
52.6216,209.5
52.6222,59
52.6293,51.1
52.6365,240
52.652,665.3
52.6624,461.9
52.6677,117.9
52.6696,600.9
52.6796,317.4
52.6809,307
52.6905,42.7
52.6914,72.6
52.7177,79.5
52.7208,159.6
52.7271,111.5
52.7298,647.7
52.7311,649.6
52.7349,148.5
52.739,105.9
52.7612,74.2
52.787,58.2
52.7906,205.2
52.7938,336.3
52.7947,384.6
52.7953,550.1
52.796,964
52.797,1256.9
52.7975,2644.6
52.7985,196.2
52.799,3231.5
52.7996,583.1
52.8003,111.9
52.8104,177.5
52.8211,674.2
52.836,731.7
52.8402,17
52.8539,709.7
52.8686,571.3
52.8689,135.9
52.8694,227.9
52.876,312.3
52.8812,38.9
52.8899,64.5
52.8927,93.2
52.8964,252.8
52.9253,43.2
52.9271,43.1
52.9381,540
52.9424,98.5
52.9582,203.6
52.9585,16.7
52.9657,687.4
52.9709,75.8
52.98,772.2
53.0135,201
53.0203,118.5
53.0232,52.2
53.024,62.6
53.0272,166.6
53.0309,434.5
53.0457,87.6
53.051,203.4
53.0689,232.2
53.0757,92
53.0806,68.2
53.0893,64.4
53.091,184.6
53.0977,303
53.1057,187
53.1064,17.8
53.1107,62.2
53.1206,142.3
53.1259,39.5
53.1339,266.6
53.1466,145.1
53.1505,308.3
53.1509,666
53.1516,124
53.1554,44.6
53.1615,199.2
53.1725,68.8
53.1781,16.6
53.1887,108.2
53.2194,46.7
53.222,240.1
53.2336,76.5
53.2548,219.1
53.2568,100.7
53.2751,74.7
53.2819,224.9
53.2999,169.4
53.331,331.7
53.3413,190.3
53.343,82.1
53.3603,509.6
53.3654,46.4
53.3679,309
53.3721,119.5
53.3831,71.7
53.3849,66.3
53.389,150.3
53.3927,123.9
53.3954,77.8
53.3957,491.1
53.3982,60.7
53.4007,547.4
53.423,322.7
53.4244,49.4
53.4283,209.5
53.4422,49.9
53.4482,37.6
53.4484,55.5
53.4486,52.9
53.4629,209.8
53.4672,635.5
53.4742,53.3
53.4779,41.7
53.4882,198.8
53.4886,119.9
53.4963,134.5
53.4978,167.1
53.5014,157
53.5026,16.9
53.5038,339.6
53.5089,61.5
53.538,53.3
53.5406,766.9
53.56,41.2
53.57,298.2
53.5735,57
53.5883,56.6
53.5889,45.4
53.5894,202.3
53.5918,37.9
53.6026,714.6
53.6098,158.6
53.623,431.6
53.6588,129.9
53.6634,104.5
53.6749,101.1
53.6889,684.9
53.7001,19.1
53.7234,67.1
53.7243,115.7
53.732,50.4
53.7507,80.9
53.7568,53.2
53.7638,15.6
53.7836,16.3
53.7936,18.9
53.7964,135.9
53.8106,246
53.8141,305.4
53.8178,115.3
53.8385,95.2
53.841,52.2
53.8462,94.6
53.8524,15.9
53.8622,204.5
53.8939,192.7
53.9018,213.4
53.9022,56
53.9132,617.9
53.9176,198
53.9366,15.2
53.9408,165.2
53.9675,103.2
53.9795,56.2
53.9886,16.6
54.0105,37.9
54.0195,122.7
54.0294,41.8
54.0388,552.7
54.0458,114.7
54.0492,35.3
54.0604,405.6
54.0702,101.3
54.0931,275.2
54.0945,162.6
54.0966,57.8
54.0985,18.7
54.1062,42
54.1248,64.7
54.15,95.8
54.1582,49.6
54.165,313.7
54.1694,39.9
54.1715,384
54.2014,56.7
54.2235,47.7
54.2422,139.8
54.2734,340.9
54.2802,74.1
54.2836,121.9
54.2856,53.6
54.2939,69.1
54.2992,197.7
54.3082,56.2
54.3126,45.2
54.3167,111.3
54.3264,672.8
54.3483,143.9
54.3747,35.7
54.3788,154.4
54.3893,123.8
54.401,152
54.4042,106.3
54.4065,43.2
54.4074,106.1
54.41,59.8
54.4229,42.1
54.4479,113.2
54.4536,43.6
54.4561,46.8
54.4569,207.2
54.4611,92.9
54.4647,63.6
54.4753,191.3
54.4839,86.4
54.4919,57
54.4931,134.6
54.5006,480.1
54.5101,132.8
54.5179,367.8
54.5468,95.2
54.5632,149.5
54.595,385.8
54.6062,57.1
54.6085,50
54.619,356.2
54.621,213.8
54.6334,43.5
54.6534,88.7
54.6621,55.9
54.6688,132.4
54.6709,115.5
54.6871,107.7
54.7043,293.5
54.7096,250.8
54.7099,222.6
54.7111,102.8
54.7152,656.8
54.7218,113.9
54.7549,50.2
54.7612,108.7
54.7653,589.6
54.7762,42.9
54.7804,261.6
54.7967,39
54.8003,103.5
54.8035,602.7
54.8134,163.6
54.8139,370.4
54.8233,67.5
54.8273,109.1
54.8414,57.8
54.8526,55.8
54.8651,50
54.8921,168.5
54.9082,433.6
54.9152,442.9
54.9335,248.3
54.934,214.4
54.9516,448.8
54.9562,50.1
54.9686,51.8
54.9719,354.6
54.976,41.3
54.9833,97.2
54.9984,130.8
54.9992,18.8
55.0004,228.2
55.002,91.6
55.0182,494.1
55.0288,128.9
55.0307,120.5
55.0357,231.8
55.0493,45.1
55.0511,277
55.0563,123.9
55.0589,37.1
55.0828,193
55.085,68.8
55.1032,55.1
55.1168,346.6
55.1547,66.2
55.1689,23.8
55.1818,391.8
55.188,313.4
55.1893,411.8
55.2221,412.3
55.2542,369.2
55.2556,76.4
55.2636,196.8
55.2745,490.5
55.2768,256.1
55.2891,199.1
55.3103,82
55.3123,657.6
55.321,196.3
55.3303,487.3
55.3446,89.4
55.3608,65.3
55.3709,147.6
55.3728,19.5
55.379,100.6
55.4288,495.4
55.4456,443.8
55.4682,121.6
55.486,57.9
55.4876,144.7
55.5078,166.3
55.5761,121.3
55.5864,72.6
55.5876,335.8
55.5886,298.8
55.5908,577.1
55.5927,413.9
55.5942,19.1
55.6006,54.9
55.6085,72.3
55.6158,335.4
55.6363,716.3
55.6909,103.7
55.693,78.8
55.6956,57.1
55.701,18
55.7062,57.1
55.7165,109.1
55.7415,19.8
55.7434,210.6
55.7524,69.2
55.7673,130.8
55.7729,82.1
55.774,43.3
55.7824,607.9
55.7829,450.7
55.7852,692.4
55.8097,48.9
55.8126,102.2
55.819,111.2
55.8381,341.3
55.8471,16.6
55.852,228.1
55.8552,185.8
55.868,59.4
55.8743,399.5
55.8806,18.3
55.8859,55.8
55.9029,49
55.9258,595.8
55.9358,213.5
55.9537,97.1
55.9541,16.7
55.956,483.3
55.9825,53.4
55.9918,109.8
56.0024,20.6
56.0129,78.1
56.0401,39.6
56.0437,262.8
56.0491,94.1
56.0564,157.4
56.0606,206
56.0726,515
56.0938,326.1
56.1051,256.6
56.1053,263
56.1099,164.7
56.1245,85.4
56.1339,123.1
56.159,202.7
56.1621,584.9
56.1637,111.6
56.1764,220.5
56.1815,317.9
56.1825,166.2
56.183,105.4
56.1883,96.4
56.2071,373.2
56.2083,72.6
56.2146,63.4
56.2188,485.8
56.2323,95.5
56.2378,231.4
56.2666,215
56.2718,20.2
56.2749,156.5
56.2763,624.9
56.2774,17.2
56.2935,545.4
56.3094,105.7
56.3234,16.7
56.3375,544.6
56.3567,113.5
56.3642,43.1
56.3689,415.4
56.3711,272.1
56.3745,292.9
56.3808,342.1
56.4031,180.2
56.4118,49.8
56.425,123.6
56.4389,585.9
56.4438,61.8
56.4564,177.1
56.4598,57.2
56.4834,288.2
56.4939,173.1
56.502,162.2
56.5153,591.8
56.5174,138.1
56.5218,163
56.5241,101.7
56.5321,75.9
56.5346,189.9
56.5384,119
56.5406,15.4
56.5434,641.3
56.5491,21.8
56.558,456
56.5779,480.9
56.5799,508.2
56.5906,104.2
56.5995,62.1
56.6076,178.3
56.6223,523.1
56.6306,715.6
56.6423,303.4
56.6518,110.5
56.6552,204.7
56.6906,342.3
56.6916,83.2
56.7215,177.2
56.7241,63
56.7261,108.9
56.7348,130.5
56.7478,182.5
56.7498,594.9
56.7535,68.2
56.7572,762.1
56.7748,122.9
56.7926,284.9
56.8039,555.8
56.8259,63.4
56.8327,127.1
56.8389,58.5
56.86,55.2
56.8609,43.3
56.8673,105.3
56.8878,86.2
56.8932,55.9
56.8952,714.5
56.9009,129.4
56.9263,469.4
56.947,683.7
56.9799,42.4
56.9875,61.4
56.9886,102.7
56.9914,596.7
57.0121,42.5
57.0174,130.6
57.0258,333.3
57.0313,52
57.04,77.6
57.0461,82.3
57.0681,495.8
57.0766,41.4
57.0891,303.9
57.0922,205.6
57.1157,43.9
57.1243,44.4
57.1261,172.5
57.1287,80
57.1309,294.1
57.1446,116.5
57.1528,172.1
57.1559,328
57.1701,324.7
57.1749,524.8
57.1772,526.8
57.1856,103.2
57.1867,453.4
57.1982,301
57.2027,615.2
57.2462,252.4
57.2595,230.5
57.2668,105.6
57.3055,151.1
57.3156,552.8
57.3166,121.3
57.3344,256
57.3609,573
57.3645,100.9
57.3686,626.5
57.3695,40.7
57.3726,214.6
57.3992,53.6
57.4037,198.7
57.4082,61.7
57.4144,222.4
57.4157,168.4
57.4186,302.7
57.4596,157.7
57.4615,34.5
57.4752,351.3
57.482,192
57.4921,791.2
57.497,80.1
57.5099,498.6
57.5118,357.6
57.5174,110.6
57.5311,80.2
57.5321,477.5
57.5711,58.3
57.5951,102.1
57.6027,71.1
57.6098,40.2
57.6104,74.7
57.6114,47.2
57.614,332.8
57.635,353.3
57.6491,124.2
57.666,63.1
57.6718,754.7
57.6777,18
57.686,49
57.6953,122.9
57.6978,60.2
57.7001,109.8
57.7088,115.5
57.7136,165.3
57.7198,58.3
57.7221,642.3
57.7257,620.1
57.7282,218.5
57.7286,162.3
57.7312,130.7
57.7326,131.1
57.7847,576.1
57.7862,175
57.7885,203.7
57.7996,63
57.8087,492.8
57.8102,177.2
57.8219,18.9
57.8248,70.9
57.8604,109.2
57.8751,555
57.8757,240.2
57.8839,69.8
57.9019,95
57.903,482.4
57.9115,57.5
57.936,44.9
57.9533,465.3
57.9626,55
57.964,114.1
57.9839,45.4
57.9977,24.2
58.002,597.9
58.0174,59.7
58.0195,73.2
58.0204,116.5
58.0296,94.8
58.0563,684.1
58.0577,21.6
58.0706,117.7
58.0718,519.9
58.0783,71
58.0963,16.6
58.1019,248.1
58.111,40
58.1171,133.6
58.1275,644.3
58.1335,182
58.1343,744.7
58.1367,93
58.1375,114.2
58.1724,70.2
58.1734,56.3
58.1763,324.3
58.1803,293.2
58.1817,783
58.2202,435.8
58.2244,206.1
58.233,170.5
58.239,20.7
58.2593,601.7
58.2595,639.6
58.2608,16.7
58.2667,113.1
58.2722,43.4
58.2728,54
58.2832,208
58.2911,43.9
58.3024,19.5
58.3062,50.6
58.3084,151.5
58.3094,50.6
58.31,96.1
58.3165,282.5
58.3171,98.3
58.325,347.6
58.3353,15.6
58.3612,44
58.3674,188.4
58.3785,333.2
58.3795,46.1
58.3871,293.9
58.3909,584.2
58.3926,80
58.4007,233.8
58.4184,119
58.4576,332
58.4634,222.4
58.4737,19.3
58.48,300.5
58.5018,115.1
58.5076,188.2
58.5097,46
58.5117,642.8
58.5129,17.2
58.5338,272.2
58.5478,162.3
58.5541,104.1
58.5593,183.9
58.5635,325.4
58.5837,292.2
58.5888,17.6
58.5933,141.5
58.5949,57.6
58.6002,118.4
58.6313,102.4
58.6377,70.1
58.6504,196.4
58.6717,466.8
58.6784,98.6
58.6794,61.3
58.6934,366.7
58.6989,663.6
58.7003,79
58.7029,169.3
58.705,78
58.744,56.7
58.7471,571.8
58.7559,95.9
58.7719,41.6
58.7953,51.2
58.7975,192.3
58.8024,233.9
58.8173,111.7
58.8245,258.4
58.8255,43.2
58.8626,79.2
58.8664,74.8
58.8757,151.9
58.8784,169.6
58.8835,291.8
58.8854,159.3
58.899,56
58.9016,129
58.9024,142.2
58.9036,56.8
58.9049,46.4
58.9059,751.4
58.9109,46.5
58.923,161.6
58.9339,50.6
58.9403,208.3
58.954,593.7
58.956,683.6
58.9582,71.8
58.9619,455.7
58.9885,60.7
59.0158,446
59.0226,13.9
59.0228,14.2
59.0296,21.1
59.0311,660
59.0316,17.1
59.0371,78.7
59.0381,316
59.0482,68
59.0522,134.2
59.0637,69.8
59.0699,387.1
59.0909,104
59.0971,50.8
59.1222,584.2
59.1802,361.2
59.1846,604.7
59.2011,203.2
59.2196,274.8
59.221,170.2
59.232,675.4
59.2341,402
59.2362,57.6
59.2413,206.2
59.2437,393.5
59.2487,61
59.2517,69.3
59.253,66.6
59.2617,120.6
59.2738,628.7
59.3272,198
59.3332,14.9
59.3524,186.2
59.3535,43.5
59.3617,66.6
59.3708,374.5
59.3857,58.5
59.3993,86.1
59.4029,109.9
59.4361,183.7
59.4526,218.1
59.4564,47.1
59.4576,44.8
59.4644,87.2
59.477,183.8
59.4791,17.7
59.4842,89
59.4972,690
59.4986,63.4
59.515,227.2
59.5437,57.2
59.567,800
59.5841,155.3
59.5995,151.8
59.6034,18.9
59.6045,47.4
59.6217,77.9
59.6278,289.6
59.6317,92.8
59.6388,16.9
59.6469,278.6
59.6547,325.5
59.661,189.4
59.6864,51.1
59.6912,187.8
59.692,649.5
59.6931,457.4
59.7025,64.2
59.7115,534.2
59.7168,157.3
59.7374,42.2
59.7587,297
59.7636,136.6
59.7668,506.1
59.7869,366.7
59.7931,387.9
59.7971,327.8
59.7986,220.3
59.8092,107
59.8297,118.4
59.8336,115.4
59.8395,99.8
59.8405,131.3
59.8408,83.2
59.8432,95.8
59.8449,196.8
59.8569,383.5
59.8586,62.3
59.8616,146.6
59.8641,206.2
59.8703,692.4
59.8754,65.4
59.8914,381.3
59.9142,138
59.9186,137.6
59.9608,53.6
59.9671,150
59.9834,158.1
60.0112,118.5
60.0132,557.3
60.0142,740.2
60.0243,195
60.0344,238
60.0393,249.4
60.0401,147.1
60.044,51.3
60.0642,59.4
60.075,248.2
60.0785,20.8
60.0794,61.4
60.0828,25.1
60.1004,503.6
60.1031,195.4
60.132,652.2
60.1401,304
60.1409,662.3
60.1471,73.4
60.1777,522.6
60.1778,520
60.2047,115
60.2059,619
60.2253,666.3
60.2636,134.4
60.2641,50.3
60.2802,69.2
60.2903,18.3
60.2958,544.7
60.3515,512.6
60.3535,491.5
60.3635,148.7
60.3674,87.7
60.3711,267.7
60.3845,119
60.3884,215.3
60.3959,627.7
60.4056,337.1
60.4284,71.4
60.4298,136.6
60.4314,196
60.4454,204.4
60.4656,149.4
60.4672,105.2
60.4684,21.8
60.477,768.9
60.4792,183.8
60.4855,305.7
60.5054,72.1
60.5088,89.3
60.5136,297.5
60.5156,72.2
60.518,528.7
60.5206,43.3
60.5272,170.1
60.5281,110.7
60.5309,189.8
60.549,260.4
60.5543,57.3
60.5648,657.2
60.5673,69.5
60.5824,225.7
60.5969,78.2
60.597,78.5
60.5972,39.6
60.6024,43.1
60.6092,112.7
60.6125,784.8
60.6332,511.6
60.6409,268.6
60.6483,113.9
60.6553,88.6
60.6814,157.4
60.6943,71.5
60.7002,440.1
60.7038,57.7
60.7122,519.7
60.7144,133.4
60.7282,43.7
60.7308,44.5
60.7416,101.5
60.7728,248.4
60.7785,167.6
60.7807,549.1
60.7908,64
60.7956,45.6
60.8056,316.2
60.8073,39.8
60.8092,43.9
60.8338,56.1
60.8354,112.7
60.8407,220.3
60.8589,625.6
60.8608,590
60.9247,157.3
60.9365,107.1
60.9544,593.8
60.9628,49.9
60.9749,104.2
60.9761,465.5
60.9945,316.9
60.9982,657
60.9994,55.9
61.0076,99.4
61.0369,224.3
61.0671,221.3
61.0821,145.7
61.1087,537.9
61.1097,63.6
61.1103,110.2
61.1165,195
61.1366,329.1
61.1382,343.6
61.1688,336.5
61.1742,687.7
61.1788,131.6
61.1851,283.4
61.1937,18
61.2334,72
61.2591,16.5
61.2718,62.5
61.2932,19
61.295,112.8
61.2984,506.4
61.2989,608.8
61.3068,84.7
61.317,461.8
61.3201,117.7
61.3222,294.6
61.3355,256.1
61.3367,190.5
61.3565,176.2
61.3611,75.6
61.382,223.6
61.388,17.1
61.4029,283.2
61.407,72.4
61.4213,67
61.4249,170
61.4322,86.7
61.4402,392.6
61.4482,423.3
61.4516,268.3
61.459,217.9
61.4637,73.6
61.4663,162.5
61.4696,638.8
61.4913,90.4
61.5022,123.2
61.5154,181.3
61.5191,488.7
61.5299,183.7
61.5559,21.1
61.5626,207.2
61.5732,637.8
61.5827,120.8
61.5843,20.1
61.5922,634.6
61.594,145.8
61.6155,15.2
61.6429,221.7
61.6782,408.3
61.6908,84.8
61.6933,438.8
61.6939,50.4
61.7159,210.1
61.7164,732.3
61.737,120.9
61.7453,295.3
61.7646,717.4
61.7733,84.6
61.7768,118.3
61.778,175.4
61.7788,78.7
61.7857,171.9
61.8,51.2
61.8057,80.8
61.8132,328.5
61.8194,122.9
61.8323,69.8
61.8359,121.6
61.8547,135.4
61.8705,45.9
61.8737,554.8
61.8801,677.8
61.8854,330.3
61.8893,576
61.8952,506.6
61.9101,63
61.9161,59.8
61.9342,730.6
61.9499,353.4
61.9515,96.7
61.9706,108.7
61.9816,44.5
61.9862,61.4
62.0063,15.2
62.0375,17.1
62.0378,142.2
62.0418,108.2
62.0762,66.8
62.0895,17.5
62.0941,70
62.1088,138.9
62.1136,120
62.135,295.3
62.1469,75.2
62.1525,64.6
62.1566,44.7
62.1589,123.7
62.1713,167.2
62.1925,67.8
62.2051,17.3
62.2139,60.7
62.2539,153.6
62.2588,59.5
62.26,329.5
62.2607,20.6
62.2622,16.3
62.2696,67
62.2739,237.4
62.2851,78.8
62.2894,59.2
62.3166,55.2
62.3459,16.7
62.3656,242.1
62.3769,162.8
62.396,46.7
62.4139,309.3
62.4152,55.2
62.4196,341
62.434,147.1
62.4359,49.6
62.4723,115.1
62.5115,182.5
62.521,58.1
62.5287,80.3
62.5351,387.4
62.5773,55.7
62.5793,82.3
62.5845,169.6
62.5871,198.7
62.5929,122.2
62.6162,137.9
62.6314,182.7
62.6377,91.6
62.6611,163.1
62.6623,44.9
62.6768,124.1
62.6851,527.8
62.6862,56.6
62.7009,74.4
62.7017,70.5
62.7023,485.2
62.7038,52.9
62.7059,66.8
62.7219,241.2
62.7838,464.3
62.8009,24
62.8453,59.3
62.851,188.8
62.8562,86.9
62.8659,737.3
62.8751,703.8
62.892,103.3
62.9114,388.6
62.9161,129.6
62.9245,72.1
62.9376,671.1
62.9534,99.2
62.9555,20
62.9599,127.5
62.9725,20.8
62.9755,270.7
62.9825,41.2
63.0173,310.2
63.0261,713.2
63.029,57
63.0355,189.9
63.0528,146.3
63.0535,81.2
63.0562,19.9
63.0588,99.7
63.0716,762.4
63.0744,609.2
63.0756,322.3
63.0833,65
63.1004,54.9
63.1082,175.9
63.1165,75.1
63.1188,447.3
63.1232,72.3
63.1525,114.6
63.1677,147.1
63.1723,311.9
63.1858,67.1
63.2018,71.1
63.2046,80.9
63.2071,196.1
63.2278,101.7
63.2313,22.1
63.2383,192.3
63.244,197.3
63.2566,258.7
63.2593,208.1
63.2604,586.4
63.2772,20.8
63.2977,362.3
63.3032,19.6
63.3451,63.8
63.346,59.2
63.354,506.6
63.3555,122
63.3688,131.9
63.3836,98.1
63.3849,590.3
63.4264,92.7
63.4514,174
63.4786,287.8
63.4797,19.2
63.4817,112
63.4866,119.9
63.4872,274.5
63.4887,97.7
63.5256,100.5
63.5403,135.8
63.5408,17.2
63.5499,18
63.5536,81.7
63.5692,60
63.5824,269.9
63.587,624.4
63.5883,73.7
63.5886,135.2
63.5887,126.6
63.5997,155.6
63.6438,149
63.6559,109.4
63.6575,65.2
63.6587,20.8
63.671,584.2
63.6863,70.8
63.6876,691.8
63.69,68.1
63.6964,734.4
63.6998,124.6
63.7023,36.8
63.7495,180.8
63.7501,539.6
63.7598,16.4
63.7602,214.9
63.7737,258.3
63.7914,390.4
63.8069,683.7
63.808,365.7
63.8085,72.4
63.8095,415.9
63.8425,45.9
63.8574,43.9
63.8639,51.2
63.8686,58.8
63.8798,271.3
63.8804,186.3
63.8849,190.6
63.8876,186.9
63.914,52.6
63.9181,596.2
63.9218,51.9
63.9369,56.2
63.9413,245.9
63.9444,67.4
63.9605,140.9
63.9632,78.8
63.966,661
63.977,603.8
63.994,59.8
63.9948,125.4
64.0005,339.1
64.0034,449.4
64.0138,61.2
64.0184,188.3
64.0394,60.7
64.0464,167.5
64.0488,99.8
64.0586,62.3
64.0768,365
64.0907,160.5
64.0967,53.9
64.099,425.8
64.1071,85.3
64.1132,770.2
64.1214,141.8
64.1247,102.9
64.138,66.3
64.1436,402.9
64.1622,65.9
64.1663,141.4
64.1803,158.8
64.186,320
64.1936,193.9
64.1978,224.4
64.1999,700.4
64.2071,269.1
64.2162,542.8
64.2333,360.2
64.2433,20.5
64.2601,83.8
64.2652,120.2
64.2787,401.3
64.2988,101.3
64.3108,236.8
64.3206,585.2
64.3305,657.3
64.3334,329.8
64.335,122.3
64.3736,151.7
64.3777,19.5
64.3873,44.7
64.3879,392
64.4084,613.2
64.4142,463.3
64.4323,221.5
64.4395,76.7
64.4545,199.2
64.4554,60.1
64.4838,56.9
64.5097,648.2
64.541,132.7
64.5535,619.9
64.5575,286.3
64.5616,239.4
64.5669,73.6
64.5704,69
64.5769,242.4
64.6097,61.6
64.6165,67.5
64.6188,212.4
64.6408,55.2
64.6682,606.3
64.6693,74.6
64.6832,252.2
64.752,277.7
64.7842,19.9
64.796,213.7
64.8261,167.8
64.8343,19.8
64.8575,522.1
64.8716,43.6
64.8738,48.7
64.8748,87.3
64.8758,111.8
64.8764,146.4
64.8826,340.5
64.8961,262.6
64.9389,332.1
64.9525,16.4
64.9742,111.9
64.9774,555.7
64.9794,22.2
64.9848,339
65.0158,111.8
65.0241,57.2
65.03,818.8
65.0345,644.9
65.041,71.5
65.0574,687.8
65.0644,123.5
65.0688,54.7
65.0748,44.5
65.0826,67.1
65.0871,102.6
65.0906,171.9
65.0922,77.3
65.0973,20.8
65.1209,150.4
65.1242,18.8
65.1523,268.9
65.1669,16.2
65.1874,302.4
65.1994,73.2
65.2019,41.7
65.2024,98.4
65.2067,162.3
65.2158,498.1
65.2384,53.5
65.2523,50.1
65.2585,264.4
65.276,101.5
65.2827,119.8
65.2873,279.8
65.29,42.4
65.3129,613
65.3255,132.8
65.3291,51.8
65.3391,576.7
65.3447,164
65.3533,596.8
65.3619,109.9
65.3659,18.7
65.3717,74.2
65.3787,354.3
65.391,96
65.4067,105.6
65.4153,48.4
65.4191,98.5
65.4193,89.1
65.4323,320.7
65.4817,373.2
65.4959,18.6
65.5363,51.7
65.5425,97.2
65.5456,594.7
65.5558,139
65.6116,145.8
65.6219,105.4
65.6366,60.8
65.6474,635.1
65.6781,93.5
65.6823,217.9
65.6839,134.2
65.6877,283.6
65.7092,145.8
65.7199,207.4
65.7235,138.1
65.7483,604
65.7489,78.1
65.7575,104.2
65.7778,188.6
65.7925,362.2
65.8118,19.3
65.8136,292.6
65.8175,137
65.8181,114.7
65.824,227.2
65.8268,80.8
65.84,288.9
65.8427,165.1
65.8498,75.2
65.8517,336.1
65.8712,510.3
65.8718,583.3
65.8813,176.1
65.9061,16.7
65.9103,635.3
65.9124,19.3
65.9142,65
65.9159,103.1
65.9243,219.6
65.9254,236.1
65.9257,228.4
65.9352,64.8
65.9478,19.5
65.9646,17.1
65.9673,131.8
66.0013,76.3
66.019,79.2
66.0248,20.7
66.033,71.2
66.0346,50.3
66.0396,605.7
66.043,191.5
66.0456,53.7
66.0615,212.6
66.0704,84.2
66.078,271.9
66.0866,180.4
66.098,52.2
66.1029,97.9
66.1085,71.7
66.1267,138.7
66.1277,78.9
66.1373,360
66.1379,16.4
66.1497,59
66.153,163.6
66.1861,76
66.187,106.6
66.1881,56.4
66.1978,357.2
66.2193,104.2
66.2389,115.2
66.2861,480.5
66.3118,56.7
66.3169,15.8
66.3191,718
66.3204,788.7
66.3364,605.6
66.3541,124.5
66.3609,246.6
66.3738,112
66.3876,464.6
66.3987,42.7
66.4097,262.2
66.4121,133.4
66.4301,63.6
66.4335,515.9
66.4352,25.6
66.4602,47.7
66.4612,108.7
66.4662,341.7
66.4929,292.3
66.4975,71.6
66.5028,162.6
66.5411,64.4
66.5581,447.4
66.5667,18.1
66.5769,127.4
66.5892,94.7
66.5938,19.7
66.5955,591.8
66.6038,207.5
66.61,651.7
66.62,55.2
66.6319,43.7
66.6473,148.9
66.6546,137
66.662,357.3
66.6652,17.3
66.6687,123.2
66.6697,63.4
66.6833,177.6
66.6857,53
66.6943,395.5
66.6996,286.3
66.7128,113.6
66.7185,84.8
66.7214,24.6
66.7221,79.9
66.7252,333.6
66.7468,181.2
66.8005,118.5
66.8442,355.5
66.8477,228.6
66.8558,643.8
66.8622,336.3
66.8674,89.4
66.8989,139.6
66.919,21.4
66.9243,41.9
66.9354,57.8
66.9418,71.2
66.9499,101.9
66.9906,53.6
66.996,63.5
66.9992,73.6
67.0055,62.9
67.0137,195.3
67.017,41.9
67.0198,64.2
67.026,111.5
67.0313,563.9
67.04,486.6
67.0497,57.5
67.0513,845.9
67.0541,166.6
67.055,16.2
67.0714,369.2
67.0845,77.2
67.0876,782.7
67.0886,281.5
67.0944,60.7
67.1001,145.1
67.1047,568.6
67.1065,71.4
67.1083,392.2
67.1198,299.3
67.1466,112.7
67.1481,416.4
67.1499,65.2
67.1562,633.9
67.1631,181.8
67.1738,356.8
67.1821,251
67.1954,310.8
67.213,55.8
67.2155,364.5
67.2227,134.2
67.2316,652.6
67.2464,58
67.2874,324.3
67.292,476.9
67.2966,221
67.3039,160.1
67.3127,46
67.328,537.3
67.337,44.2
67.3423,73.7
67.3579,146.1
67.3617,509.5
67.3632,693
67.3819,184.1
67.3923,225.6
67.3965,649.2
67.4106,72.3
67.4321,134.7
67.4575,355.6
67.4622,196.6
67.5009,115.6
67.5169,155.8
67.528,368.8
67.5661,253.1
67.567,53.1
67.5814,81.4
67.5899,39
67.5964,232.5
67.6027,288
67.6144,87.7
67.6288,48.9
67.6426,319.1
67.6722,615
67.6742,347.2
67.6918,76.6
67.7008,94.4
67.7123,70.5
67.7229,41.3
67.7249,66.3
67.7323,225.8
67.7361,157.8
67.7447,56
67.7472,52
67.7483,40
67.7724,103.6
67.8273,517.1
67.8303,174.6
67.8324,345.2
67.8408,176
67.8609,660.9
67.8743,170.1
67.8894,477.2
67.8976,22.1
67.9167,87.8
67.9187,471.4
67.9273,294.6
67.9328,66.2
67.9656,58.2
67.9778,317.1
68.004,344.6
68.0105,69.5
68.0142,277.8
68.0371,310.6
68.0391,794.6
68.0604,60.1
68.0956,505.7
68.1184,43.5
68.1209,94
68.1392,167.2
68.1422,22.3
68.1645,106
68.187,356.2
68.1915,151.5
68.1995,58.6
68.2219,113.7
68.2256,148
68.2419,295.3
68.2444,199.6
68.3062,81.5
68.3088,56.8
68.3248,665.3
68.3301,56.5
68.3405,318
68.3469,117.1
68.3512,202.3
68.3666,329.7
68.3743,102.7
68.3811,258.1
68.3965,369.4
68.4384,39.1
68.4586,567.6
68.4626,196
68.4635,75.1
68.4782,46.9
68.4912,41.8
68.5352,244.5
68.5543,200
68.5731,91.2
68.5789,146.9
68.5898,111.7
68.5924,69.6
68.5991,134.1
68.6128,19.4
68.6142,281
68.6211,120.5
68.6558,163
68.6907,84.1
68.6917,122.1
68.7148,651.1
68.7221,171.3
68.7339,587.1
68.7351,256.8
68.7587,179.8
68.7857,17.8
68.787,323.8
68.7992,109.9
68.8141,140.4
68.8339,158.7
68.8631,721.7
68.871,99.5
68.8963,76.3
68.8971,44.4
68.9413,167.5
68.9487,126.9
68.9632,410.7
68.9902,116.5
69.0246,60.6
69.0281,65.5
69.0356,91.7
69.0462,86.1
69.0694,216.5
69.0855,43.6
69.0942,87
69.0976,308.4
69.107,219.5
69.111,527.6
69.1203,463
69.1394,364.4
69.1419,161.5
69.1421,169.8
69.1715,115.7
69.1917,550.4
69.2033,603.2
69.2063,639.1
69.2119,383.5
69.2141,653.9
69.2201,325.6
69.2487,268.2
69.2728,110.4
69.3153,55.8
69.3187,608.5
69.3274,228.3
69.3377,48.3
69.3538,55.7
69.3767,47.7
69.3818,321.6
69.3854,158.7
69.3857,155.5
69.3998,253.1
69.4189,395.2
69.4387,107.9
69.4453,44.7
69.4763,214.6
69.4777,148.3
69.4807,165.4
69.4865,19.4
69.5106,83
69.5178,79.3
69.524,116
69.5847,160.4
69.589,90.9
69.6052,278
69.6086,387
69.6277,73
69.6306,371.6
69.644,122.7
69.6522,567.2
69.6738,84.3
69.688,114.7
69.7012,122.1
69.7098,44.2
69.7403,103.8
69.7703,448.9
69.7756,102.5
69.7785,166.1
69.7828,137.8
69.8101,47.3
69.8135,489.9
69.8176,42.2
69.8187,616
69.8322,71.2
69.8333,21.5
69.8424,305.4
69.8445,445.1
69.8536,75.1
69.8583,82.4
69.9009,118.4
69.9472,21.8
69.9898,137.4
69.9923,68.2
70.0167,630.2
70.0228,45.6
70.0238,179.4
70.0412,323.9
70.0429,164.2
70.0483,155.9
70.0648,338.4
70.0699,72.3
70.0722,115.5
70.1013,62.2
70.1127,518.7
70.1153,124.2
70.1191,658.1
70.1312,314.6
70.1791,285.5
70.1963,45.8
70.2004,64.8
70.2247,219.1
70.2526,565.4
70.2649,768.2
70.3042,763.4
70.3054,64.3
70.3125,661.3
70.3165,60.1
70.3249,49
70.3307,439.8
70.3388,115.8
70.3699,165.3
70.3714,75.9
70.3728,18
70.3903,74.1
70.3951,69.4
70.4152,93
70.443,172.7
70.4597,69.2
70.4943,151.7
70.5013,670.7
70.5037,52.7
70.5073,290.9
70.5101,120
70.5219,126.5
70.5254,46.4
70.5397,19.3
70.5491,52.9
70.5618,75.2
70.5974,149.2
70.6086,110.5
70.6107,587.9
70.6394,133.7
70.6545,345.1
70.6793,44.2
70.6818,618.9
70.6912,55.5
70.695,108.9
70.7186,16.9
70.7204,637.5
70.7399,790.5
70.7428,60.6
70.7437,320.7
70.7526,19.1
70.7645,63.3
70.7654,218.6
70.768,664.4
70.7706,687.5
70.8145,512.4
70.8333,113.6
70.8432,503.4
70.8496,334.9
70.8681,182.7
70.8828,160.6
70.9235,90.9
70.924,299.3
70.9328,140.3
70.9495,42.9
70.967,190.6
70.9872,71.4
70.9998,112.6
71.0014,628.5
71.012,482.4
71.0271,278.1
71.0287,570.4
71.037,51.4
71.0419,596.3
71.0499,551.1
71.088,101.7
71.153,19.9
71.1636,342.1
71.1826,111.5
71.1903,567.9
71.1932,286.3
71.1999,143.1
71.2043,58.3
71.2079,109.3
71.2104,17.3
71.2217,137.4
71.2624,372.5
71.2782,644.9
71.3095,54
71.3222,117.9
71.324,595.5
71.3289,119.8
71.3427,20.3
71.343,20.7
71.3498,59.8
71.3629,63.7
71.3635,477
71.3895,156.8
71.3957,199.9
71.3971,366.2
71.4239,313.8
71.4303,81.7
71.4311,113.8
71.4523,490.9
71.467,420
71.4876,190.4
71.4917,46.8
71.4958,15.4
71.5433,231.4
71.5538,73.7
71.5575,113.3
71.5633,57.9
71.5731,67.7
71.5762,100.4
71.5776,21.1
71.5902,62
71.5968,114.1
71.6126,278.5
71.6133,358.4
71.6229,75.3
71.6349,707
71.6382,112.7
71.6555,542.7
71.6686,67
71.6691,181.1
71.6866,16
71.6909,52.6
71.693,262.2
71.6987,47.7
71.7098,82.2
71.7222,597.6
71.7339,164.4
71.7494,132.3
71.7526,71.3
71.7605,166
71.7805,216.1
71.7831,146.1
71.7883,247.1
71.8037,691.3
71.8181,23.7
71.8342,474.3
71.8515,215.8
71.8584,682.4
71.8784,314.9
71.9034,19.6
71.9277,46.1
71.9437,223.9
71.961,20.4
71.9676,543
71.9744,207
71.9882,323.3
72.003,313.4
72.0083,326.9
72.0195,66.5
72.0553,86.9
72.0629,99
72.064,67.3
72.069,252
72.0805,527.4
72.0814,105.2
72.0896,455.9
72.1126,595.1
72.1187,825
72.129,223.5
72.1306,150.6
72.1355,47.2
72.1498,496.4
72.153,342.1
72.184,549.1
72.2117,210.1
72.2205,420.5
72.2262,39.9
72.227,70.4
72.2284,182.2
72.2292,63.7
72.2309,163.1
72.2316,60.6
72.2327,613
72.2335,339.1
72.2341,417.6
72.2352,1001.9
72.2358,200.9
72.237,1029.5
72.2382,872.5
72.2386,728.2
72.2401,1762.7
72.2411,2365
72.2422,2900.9
72.243,3251
72.2436,3017.5
72.2444,3605.8
72.245,3937.9
72.2464,3409.9
72.2477,5264.5
72.2485,2308.1
72.2489,2787.2
72.2497,3254.2
72.2508,2267.2
72.2527,1205.2
72.2533,641.2
72.2542,356.4
72.2786,145.6
72.2852,55.3
72.2966,74.9
72.3064,66.5
72.3157,111.7
72.3161,56.6
72.3423,105.3
72.3523,50.6
72.4024,359.4
72.4171,366.5
72.4175,117.2
72.429,307.9
72.4423,26.5
72.478,644.2
72.4855,69.8
72.4956,71.1
72.4991,104.2
72.5163,225.2
72.5233,18
72.54,56.1
72.5467,183.5
72.5473,96.8
72.5755,425
72.6499,120.9
72.6893,82.1
72.6911,72.4
72.7037,256.9
72.7116,107.4
72.7228,1296.9
72.7236,60.7
72.7323,171.2
72.7338,361.4
72.7402,64.4
72.741,660.3
72.7542,16
72.7634,723.4
72.7652,579.5
72.797,105.9
72.8029,86.9
72.8554,18.1
72.9664,41.2
72.9899,114.9
73.0153,19.8
73.0293,945.8
73.0304,81.9
73.0418,59
73.0587,197.3
73.0631,105
73.0651,202.3
73.0984,506.7
73.1011,124.7
73.1019,104.5
73.1136,43.8
73.1174,17.3
73.1243,153.2
73.1305,739.9
73.1376,836.9
73.1534,109.6
73.1641,16.4
73.1716,45.7
73.2198,196.7
73.2508,110.7
73.2723,181.8
73.2795,494.2
73.3055,155.2
73.3188,131.6
73.3516,74
73.3531,62.8
73.3606,106.7
73.366,302
73.3734,142.3
73.4322,87
73.4485,341.9
73.4491,67.3
73.4565,157.5
73.4611,166.6
73.4772,148.4
73.4869,230.1
73.4882,118.4
73.5212,120.1
73.5482,574.5
73.5492,182.4
73.5577,51.3
73.5761,145.2
73.5783,566.1
73.5924,94.3
73.6097,67.4
73.6716,413.5
73.6761,48.2
73.692,129.4
73.6999,178.2
73.7109,71.5
73.7478,590.7
73.7513,579.6
73.7904,82.7
73.7998,677.8
73.8005,348.5
73.8035,126.7
73.8212,21.8
73.8221,580.8
73.8627,192.9
73.8704,123.6
73.8989,43.7
73.9259,19.2
73.9285,433.8
73.9313,222.7
73.9362,19.8
73.9507,629.1
73.9686,17.7
73.9844,65.2
73.9852,161.2
73.9974,149.3
74.0112,352.2
74.0315,382.6
74.0425,19.7
74.0478,117.7
74.0518,119
74.0565,115.9
74.0597,3852.5
74.0712,105.8
74.0726,141.2
74.0753,73.2
74.0795,131.7
74.0946,534.5
74.097,112.6
74.1684,570.7
74.1763,638.3
74.1842,619.6
74.1988,332.9
74.2101,306.8
74.2145,169.3
74.2162,686.7
74.2396,96.7
74.2637,76.7
74.2801,17.5
74.2922,766.7
74.3039,306
74.3412,359.7
74.3547,157.2
74.3558,589.6
74.3905,182.2
74.3958,117.6
74.4053,607.4
74.4796,407.2
74.4873,104.4
74.4906,50.6
74.493,166.3
74.5993,69.9
74.6281,141.7
74.6312,82.9
74.6338,113.8
74.6628,254.4
74.6818,99
74.7117,137.3
74.7212,16.6
74.7659,92.6
74.7856,58.8
74.8058,583.1
74.8253,63.8
74.836,543.7
74.8498,47.7
74.8518,167.2
74.8756,76.1
74.8831,645.7
74.8877,718.2
74.904,166.1
74.9305,54.5
74.9415,62.4
74.9467,331.8
74.9666,290.4
74.971,18.3
74.9757,180
74.9815,66.4
74.9862,433
75.0239,140.1
75.0463,200.6
75.054,23.8
75.0556,662.3
75.0591,64
75.1059,403.2
75.1479,71.2
75.1523,18.1
75.1975,65.2
75.2022,302.1
75.2096,57.4
75.2287,133.6
75.241,47.2
75.2558,145.8
75.2571,75
75.2636,271.3
75.2816,113.9
75.2907,47.4
75.3044,573.5
75.3458,467.7
75.3599,130.8
75.3747,154.3
75.3957,494.1
75.4059,391.6
75.4135,397
75.4149,154.8
75.4177,179.4
75.4313,130
75.4375,18.8
75.4424,64.3
75.4659,335.8
75.4714,143.5
75.4749,53.9
75.4919,53.4
75.5229,365.7
75.5312,532
75.5434,19.4
75.5594,46.2
75.5658,139.1
75.5763,60.3
75.5886,55.5
75.5897,49.2
75.636,201.7
75.6581,63.4
75.6849,55.4
75.6882,44.1
75.6976,45.4
75.706,252.3
75.8132,516.4
75.82,128.8
75.8428,147.3
75.8607,77.1
75.8745,574.1
75.8846,344.9
75.8855,125.8
75.9045,133.6
75.9239,363.1
75.9303,637.5
75.9555,394.8
75.9821,106.8
76.0068,203.5
76.0304,73.2
76.0447,729.5
76.0454,148.8
76.0735,44.4
76.1116,191
76.1238,57.8
76.1464,569.4
76.1519,608.3
76.176,709.1
76.1811,182.2
76.2181,71.6
76.23,519.5
76.2342,599.9
76.2424,103.3
76.2963,382.2
76.3005,195.2
76.3044,119.3
76.3102,335
76.3644,61.3
76.3712,303
76.3872,66.1
76.4047,611.2
76.4115,662.2
76.4226,91.6
76.4357,98.7
76.4696,123.6
76.4896,93
76.5243,169
76.5323,136.4
76.5547,143
76.574,48.1
76.5831,51.1
76.6112,51.6
76.6213,143.1
76.6228,65.4
76.6338,552.3
76.6608,202.9
76.6659,94.8
76.6661,93.5
76.6665,70.6
76.6767,209.1
76.6807,206.8
76.6984,26.9
76.6996,79.2
76.7238,808.6
76.7356,271.6
76.749,140
76.7971,187.6
76.8024,69.8
76.8067,860.3
76.8443,214.4
76.8625,118.6
76.8894,324.9
76.8918,97.4
76.9106,16
76.9679,22
76.9724,79.8
76.9732,260.7
76.9817,60.9
77.0353,24.6
77.0383,125973.2
77.0423,45.4
77.0583,66.3
77.066,210.1
77.0696,315.1
77.0806,695.5
77.1047,293.1
77.1211,110.1
77.1398,109
77.1516,662.2
77.1648,68.2
77.175,555.3
77.2034,482.6
77.2061,221.1
77.2297,309.4
77.24,20.8
77.2412,237.5
77.2491,18.3
77.2562,102.8
77.2661,104.7
77.3053,561.9
77.3247,343.8
77.326,190.4
77.3375,88.8
77.3396,634.4
77.3405,482.1
77.3554,109
77.3792,300.5
77.3845,215.3
77.3884,127.4
77.3964,105.6
77.4156,510
77.4256,719.2
77.4313,309.4
77.4439,242.5
77.4474,72.2
77.494,139.9
77.5117,521.2
77.5443,459.7
77.5472,579
77.573,132.8
77.5792,61
77.6306,74.3
77.6518,195.6
77.6633,186.9
77.6873,129.2
77.7031,51
77.7309,178
77.7335,529.7
77.743,56.1
77.7558,66.9
77.7801,60.2
77.7982,603.3
77.8351,170.8
77.8473,559
77.8562,93.3
77.8604,212.1
77.8674,321.8
77.8687,259.6
77.8697,95.4
77.8817,18.2
77.8853,528.6
77.9129,81.1
77.9137,311.4
77.915,105.5
77.927,63.1
77.9383,21
77.9437,124.5
77.9473,44.5
77.9562,215.1
77.9656,46.3
77.9735,669
77.9803,546.9
77.9931,72.5
78.0123,71.4
78.0401,420.5
78.0417,5159.6
78.0495,68
78.0541,161.2
78.0753,65.2
78.0798,170.1
78.1064,503.3
78.1518,81.1
78.1978,73
78.2149,416.8
78.2357,280.1
78.2399,63.5
78.2496,187.5
78.266,96.8
78.2698,639.7
78.2753,306.9
78.3462,109.5
78.3615,348.8
78.3822,103
78.3851,445.6
78.4184,154.9
78.4232,184.2
78.4341,222.3
78.437,289.9
78.454,185.2
78.4546,274.8
78.4649,446.4
78.4856,292.1
78.512,191.6
78.5456,373.7
78.547,570.1
78.5547,123.1
78.5662,504.6
78.5765,171.9
78.6158,136.2
78.652,110.2
78.6532,624.2
78.6671,67.7
78.6836,105.6
78.7038,163.3
78.7492,181.3
78.7816,92.2
78.8068,20.6
78.8287,606.7
78.8374,115.8
78.8872,440.3
78.8945,108.3
78.9013,43.4
78.9183,55.8
78.9256,312.3
78.939,17.6
78.946,50.7
78.9582,22.2
78.9604,81.2
78.9616,69.3
78.9924,156
78.9968,112.4
79.0112,22.2
79.0261,20.2
79.0433,182
79.054,4645.5
79.0557,78.6
79.0647,189.4
79.0669,663.2
79.0814,56.3
79.0821,563.2
79.0836,78.3
79.0892,80.1
79.0961,389
79.1064,115.8
79.1073,161.4
79.12,287.5
79.128,56.2
79.1695,53.4
79.1885,90.6
79.1924,271.7
79.2062,67.6
79.2264,276.4
79.2316,485.2
79.2405,513.4
79.2415,57.2
79.2427,46.6
79.2761,667.5
79.2988,41.4
79.3393,512.4
79.3586,87.7
79.3651,283.1
79.3682,84.4
79.3715,18.9
79.3766,62.3
79.3867,46
79.4211,604.8
79.4613,307.9
79.4682,568
79.5375,289.2
79.5522,641.4
79.5564,234.7
79.5718,21
79.5772,206.9
79.5907,72.9
79.6015,49.1
79.6028,237
79.6621,472.7
79.7039,134.2
79.7065,53.7
79.7331,374.8
79.734,80.2
79.7545,81.4
79.8151,698
79.8316,88.6
79.8496,259.6
79.8527,165.3
79.8578,48.4
79.8581,45.7
79.8639,336.8
79.8776,139.9
79.8814,65.8
79.9122,333.7
79.9145,21.3
79.9168,16.2
79.9348,83.9
79.9633,319.6
79.9653,65.9
79.9798,164.5
79.9841,284.8
80.0344,72
80.0402,107.8
80.0572,21.7
80.0706,593.7
80.0767,200.4
80.0949,20.7
80.1001,297.7
80.1019,69.6
80.1032,507.1
80.108,65.9
80.1113,351.5
80.1346,62.3
80.1519,106.1
80.1848,153.6
80.2061,266.1
80.2285,63.4
80.2566,92.5
80.3207,74.6
80.3294,598.1
80.3418,809.4
80.3488,155.4
80.3578,252.4
80.3796,180.6
80.4128,133.1
80.4216,83.8
80.4286,49
80.4437,160.5
80.4941,279.2
80.5004,43.7
80.5346,147.2
80.5371,47.9
80.5623,155.2
80.6353,314.3
80.6457,279
80.6714,19.3
80.6861,110.4
80.7004,296.5
80.7031,328.6
80.7085,42.6
80.7186,83.9
80.7478,602.1
80.75,64.5
80.7654,83.1
80.781,54.9
80.8014,103.1
80.8052,117.4
80.8058,504.2
80.8075,47.2
80.8194,99.3
80.8286,65.4
80.8314,119.7
80.854,81.2
80.8602,81.8
80.8895,417.5
80.9138,397.4
80.9205,164.9
80.9476,41708.3
80.9709,720.3
80.974,321.8
80.9847,40.7
80.9856,412.7
80.9877,73.2
80.9975,46
81.0176,301.1
81.0216,466.4
81.0377,57.5
81.0494,197.7
81.0696,2521.1
81.0964,185.7
81.1181,350.2
81.1227,170.7
81.148,256.4
81.1509,242.8
81.1525,839.3
81.1534,241.1
81.1541,356.1
81.1547,142
81.1553,136.3
81.1566,120
81.1571,79.5
81.1579,196.7
81.1754,345.6
81.197,179.4
81.2002,47.8
81.2032,109.6
81.2101,139.3
81.2211,669.5
81.2237,188.9
81.228,18.7
81.2385,41.4
81.2435,719.6
81.2762,538
81.3056,654.4
81.3284,607.1
81.3324,75.6
81.3372,196.9
81.3609,446
81.3971,19.9
81.4307,288
81.4432,22.6
81.5044,278
81.5109,78.8
81.5281,464.8
81.5366,824.3
81.5535,140
81.5725,53.8
81.5826,17.3
81.6031,376.4
81.6034,361.5
81.6107,106.9
81.6131,648.1
81.6449,68.3
81.6615,126.8
81.6957,268.9
81.6971,208.7
81.707,136.6
81.7106,49.4
81.7163,118
81.7275,111.6
81.7357,182.4
81.7469,634.3
81.7753,21.2
81.8264,187.8
81.8271,631.8
81.8369,18.7
81.8592,503.3
81.8649,87.3
81.8672,198.5
81.8937,129.6
81.9156,229.2
81.9281,582
81.9499,377.6
81.9801,174.8
81.9965,672.6
82.003,44.9
82.0065,57.4
82.052,605.6
82.0687,239.1
82.1018,18.5
82.1089,20.9
82.1302,61.6
82.178,178.1
82.1836,372.8
82.1866,73.9
82.1927,438.8
82.2054,72.7
82.2228,528.3
82.2743,173.5
82.2805,140.4
82.2918,298.6
82.302,204.5
82.3084,212.8
82.3153,347.7
82.3195,266.4
82.3581,645.7
82.3603,338.9
82.3636,74.4
82.3788,17
82.4058,67.9
82.4094,902.4
82.4124,170.9
82.4132,56.3
82.4514,260.8
82.4626,73.9
82.4768,269.9
82.4816,20.5
82.4833,328.5
82.4929,60.7
82.494,26.8
82.5114,669.4
82.55,195.2
82.5734,20.5
82.6077,57.1
82.6261,209.9
82.6398,672.2
82.7059,20.2
82.7116,724.5
82.7227,51.8
82.7261,607.7
82.7571,379.6
82.768,209.9
82.7868,456.6
82.7875,153.4
82.7963,47.5
82.8107,71.7
82.8122,129.4
82.8153,467.9
82.835,266.7
82.85,346.1
82.8735,265.3
82.9065,43.8
82.9191,568.9
82.9446,11573.5
82.9469,59.8
82.9476,547
82.9737,484.7
82.9821,124.3
82.9949,316.8
82.9967,53.8
83.0335,45.7
83.0407,108.3
83.0443,64.1
83.0543,446.7
83.0654,98.1
83.0717,112.2
83.0842,729.1
83.099,144.7
83.1109,292.3
83.1825,300.7
83.1892,79.4
83.2025,385
83.2507,178.6
83.2574,887.6
83.2691,73.6
83.2956,816.2
83.3054,169.2
83.3237,20.9
83.3259,20.5
83.3336,23.1
83.3381,57
83.3392,118.4
83.3575,70.6
83.3583,111.2
83.3619,18.1
83.3649,136.6
83.3652,142.8
83.4529,142.6
83.479,113.4
83.4936,123.5
83.5032,177.1
83.5262,147.6
83.5366,339
83.5466,309.8
83.599,397.5
83.6058,640
83.6112,19.5
83.6214,56.7
83.6324,20.8
83.7132,120.1
83.7173,82.4
83.7429,175.8
83.7544,365.1
83.7636,59.2
83.7965,85.9
83.802,630.8
83.8183,73.9
83.8204,154.9
83.8258,655.8
83.8426,67
83.8558,700.1
83.8687,93.5
83.893,81.3
83.8942,118
83.9154,68.9
83.9646,225.8
83.9658,113.8
84.0403,76.3
84.0442,71.7
84.0505,360.3
84.0515,80.2
84.0902,93.4
84.1044,427.3
84.1052,166.2
84.1565,50.9
84.179,203.5
84.1792,222.3
84.2029,146.8
84.2082,191.4
84.2326,600.8
84.2565,42.5
84.3244,616.9
84.3272,69.7
84.3308,145.2
84.3373,642
84.3424,597.8
84.3489,96.3
84.357,127.6
84.3589,377.9
84.4057,303.8
84.4432,249.9
84.4484,150.5
84.4671,222.3
84.4682,49.8
84.4812,20.1
84.4926,719.7
84.55,24.2
84.5529,60
84.5644,53.2
84.5654,684.4
84.5686,527.5
84.5935,274
84.6117,684.6
84.6712,80.4
84.6758,78.6
84.7067,56.9
84.7245,362.5
84.7442,264.1
84.7566,142.6
84.7679,561.9
84.775,738
84.7927,68.2
84.8102,497.6
84.8305,25.4
84.8456,95.5
84.8476,212.1
84.8487,20.4
84.8895,453.5
84.9273,357.2
84.957,222.8
84.9579,240.9
84.9595,18413.9
84.983,174.3
85.0096,47.1
85.0174,118
85.0281,826.7
85.0493,117.6
85.0535,307.3
85.0627,620.8
85.0867,435
85.1364,370.9
85.156,68.8
85.1862,18.9
85.2155,192.6
85.2266,224
85.2302,100.6
85.2623,169
85.2632,533.5
85.2654,56.9
85.2815,446.6
85.2896,76.5
85.3178,55.1
85.3217,78.4
85.3456,144.7
85.3526,62.1
85.3624,62
85.374,115.1
85.3996,104.9
85.46,61.5
85.4988,225.6
85.5088,52.4
85.5398,544
85.5431,62.6
85.5828,51.8
85.5854,67.4
85.5946,235.5
85.5954,343.9
85.6141,44.6
85.6257,388.6
85.6738,95.6
85.6787,180.2
85.7282,137.6
85.7316,21.3
85.7779,647.1
85.8146,46.3
85.8177,23.6
85.8443,606.8
85.9018,19.1
85.93,329.1
85.9319,63.4
85.9461,688.5
85.9727,67.9
85.9985,119.2
86.0103,603.9
86.0171,55
86.0302,1056.6
86.039,142.5
86.0477,71.7
86.0495,46.9
86.0598,44628.8
86.0709,138.4
86.0726,218.5
86.0934,46.6
86.0962,69410.3
86.1311,606.3
86.1467,244.6
86.1803,59.4
86.1962,636.6
86.2464,292.8
86.2675,89.2
86.2683,23
86.3318,17
86.3454,725.9
86.3595,55.1
86.3766,828.4
86.3898,55.9
86.4089,143
86.4144,214.8
86.4377,90.8
86.4549,233.7
86.4641,508.2
86.4723,105.2
86.481,17
86.4972,138.8
86.5258,126
86.5348,21.3
86.5454,17.7
86.6264,132.8
86.6505,576
86.7701,74.1
86.778,51
86.7806,85.4
86.7939,62.8
86.8097,49.9
86.8278,218.8
86.8599,133.2
86.8665,539
86.899,68.2
86.9096,270.4
86.9225,183.6
86.9679,54.3
86.9716,64
86.983,190.7
86.9906,112.2
87.0059,51
87.0448,16
87.0763,522.1
87.0835,204.2
87.0921,64.6
87.0994,85.7
87.1002,108.8
87.1032,851.6
87.1054,158.5
87.1097,630.7
87.1185,15.6
87.1381,705
87.1669,80.9
87.1851,91.4
87.2067,132.9
87.2155,356.3
87.2186,163.4
87.2733,112.7
87.3014,42.8
87.3249,556.8
87.3474,195.7
87.3564,242
87.4156,268.9
87.4541,93.7
87.4576,363.3
87.5056,51.6
87.5177,182.5
87.5602,17.7
87.5825,115.1
87.6048,56.6
87.606,103.6
87.6083,192.4
87.6503,217.7
87.6578,107.2
87.6839,19.7
87.6878,75.6
87.6924,64.4
87.7153,420.5
87.7356,60.9
87.7679,72.7
87.7858,183.3
87.8391,181.9
87.8549,198
87.8766,21.4
87.9273,781.4
87.955,51.1
87.9603,115.5
87.993,61.5
88.0391,12817.3
88.045,89.9
88.059,58.3
88.0685,312.3
88.0698,491.3
88.0701,702
88.0846,440.2
88.0902,60.4
88.1306,81.8
88.1451,77.9
88.158,60
88.159,697.9
88.161,123.6
88.2228,201.5
88.263,43.3
88.2792,222.9
88.2815,557.9
88.2961,19.1
88.3183,348.3
88.3612,252.5
88.3648,113.7
88.3667,51.6
88.4325,231.7
88.4631,301.5
88.4708,212.9
88.6021,247.4
88.6104,640.1
88.6452,566.7
88.6529,135
88.7117,141.5
88.7153,351.5
88.7216,200.6
88.7655,24.6
88.7786,90.7
88.7823,708.9
88.8231,181.8
88.8344,54.3
88.8534,240.4
88.863,722.5
88.8726,360.9
88.8734,19.1
88.8779,521
88.9059,739.4
88.9123,280.1
88.9176,554.5
88.9413,59.8
88.9474,245.6
88.9765,24.2
88.9845,357.5
88.9879,39.8
89.0424,51.4
89.0592,288.7
89.0655,133
89.0733,415.8
89.0765,195.5
89.1086,51.2
89.2038,145.2
89.2174,125.5
89.2218,158.5
89.2372,871.7
89.3194,303.2
89.3286,108.5
89.3342,82.4
89.3369,134.7
89.3613,20.6
89.4069,227.3
89.4959,46
89.5212,56.7
89.601,20
89.6362,22
89.6992,84.6
89.715,722.4
89.7371,82.5
89.7381,448.6
89.7455,149.9
89.7784,63.6
89.817,122
89.9098,130.9
89.985,106.3
89.9858,249.9
89.9958,110.5
90.0118,752.1
90.0211,460.9
90.0371,74.8
90.0422,369.1
90.0547,151.9
90.059,208.6
90.0953,45.6
90.1521,24.6
90.1675,245.2
90.1725,62.5
90.1878,135.8
90.2123,320.7
90.2396,100.5
90.3286,276.5
90.3317,211.7
90.3449,65.1
90.3546,394.3
90.359,166.6
90.3642,19.7
90.3901,699.9
90.4017,154.3
90.4207,51.9
90.421,57.3
90.4327,313.5
90.4384,224.8
90.4433,126.2
90.4448,47.1
90.4523,48.8
90.4552,87.7
90.4801,590.6
90.4923,112.4
90.493,809.8
90.5199,125.8
90.5282,68.8
90.5339,203.8
90.6454,673.9
90.648,48.7
90.6576,173.6
90.6603,53.4
90.6643,76.8
90.7354,61.9
90.7393,76.4
90.7452,40.7
90.7654,307.2
90.8081,307.1
90.8244,353.2
90.8403,94.4
90.8454,208.5
90.8485,43.1
90.8688,437.2
90.8787,353.8
90.9119,491.8
90.9298,77.3
90.9475,69.8
90.9607,95.8
90.9645,330.5
90.9744,61.3
90.9765,5081.2
91.0064,127.3
91.0153,72.4
91.0209,318.5
91.0231,78
91.0275,132.6
91.0406,56.8
91.054,3070.1
91.0572,25
91.088,51.3
91.0895,361.3
91.0986,140.1
91.1749,87.7
91.1826,56.8
91.1876,580.6
91.1944,55.8
91.2054,154.6
91.2187,361.8
91.2264,128
91.2546,105.1
91.2836,88.5
91.3202,481.3
91.3312,58.9
91.345,45.9
91.3871,76.7
91.4091,586.2
91.4164,127.9
91.4197,207.4
91.4221,155.1
91.4247,236
91.4474,48.5
91.4905,48.1
91.4934,67
91.506,529.5
91.5302,68.1
91.5423,226.5
91.5465,46.6
91.5613,166.9
91.5761,230.4
91.5831,94.5
91.5994,18
91.6749,113.2
91.7042,304.4
91.7071,86.7
91.736,248.7
91.7415,178.2
91.7551,110.3
91.7578,45
91.7682,83.6
91.8398,203.4
91.8523,59
91.8556,639.3
91.8906,48.8
91.9088,80.5
91.947,571.3
91.9705,686.9
92.0001,51.4
92.015,222.1
92.0309,129.9
92.0494,20.8
92.0968,23.3
92.12,88.3
92.1272,255.5
92.1519,255.2
92.1656,765.5
92.1675,408.3
92.1994,540
92.2686,84
92.2729,128.4
92.2907,172.4
92.3322,64.7
92.3597,558.5
92.3613,412.6
92.3823,709.3
92.387,63.3
92.4008,69
92.4214,59.5
92.4471,74.1
92.4799,801.2
92.4843,58.4
92.5221,103.7
92.5313,179.5
92.5559,64.7
92.5616,79.9
92.6122,58.7
92.6367,96.1
92.6512,120.3
92.6566,44.5
92.6655,184.7
92.7061,127
92.7071,170.7
92.7491,75.9
92.7948,27
92.8096,94.1
92.8721,72.1
92.8919,775.7
92.8946,292.1
92.9268,18.1
92.9299,84.3
92.9818,182.3
93.0125,504.5
93.0231,97.4
93.0359,52.2
93.0913,320.2
93.1296,61.3
93.1355,122.7
93.1386,54.9
93.1449,106.3
93.1652,627.4
93.2153,405.1
93.2312,512
93.2354,21.7
93.288,585.5
93.3298,299.6
93.3368,108.9
93.3403,170.9
93.3431,50.4
93.365,62.3
93.367,769.1
93.4601,152.2
93.4786,70.4
93.4939,339.2
93.5494,141.1
93.6093,255.4
93.6164,20
93.6216,141.4
93.6296,121
93.6714,691.5
93.7379,329.3
93.8168,258
93.8307,204.8
93.8457,44
93.8574,58.2
93.8892,100.5
93.8914,60.2
93.8935,52.4
93.9127,72.4
93.9297,108.5
93.9567,126.2
93.972,54.5
93.9733,330.6
93.9753,23.2
93.9783,68.2
93.9906,58.6
94.019,64.8
94.0209,129
94.0411,111334.2
94.0425,65.7
94.1121,202.2
94.1169,362.6
94.1356,131.4
94.1486,68.7
94.1616,344.4
94.1749,96.9
94.1889,62
94.1935,353.8
94.2039,159.1
94.2061,590.6
94.2074,47.4
94.2196,78.2
94.2415,138.1
94.2477,359.3
94.2506,813
94.2766,174.8
94.3106,89.6
94.3127,52.2
94.4192,59.5
94.4325,291.9
94.4374,644.2
94.4436,186.2
94.4529,528
94.4574,589.8
94.4595,335.7
94.4623,56.9
94.4782,97.7
94.4843,604.2
94.4948,711.7
94.5141,375.3
94.5162,102.9
94.5371,66.3
94.5448,69.1
94.5515,85.3
94.5649,132.4
94.5662,301.2
94.5695,305.3
94.6025,562.1
94.6166,198.7
94.6223,19.6
94.6276,446.9
94.6302,734.8
94.6347,738.9
94.6374,164
94.6567,132.3
94.6586,774.2
94.6847,53.6
94.6929,107.1
94.6989,46.6
94.768,187.5
94.7713,52.3
94.8391,156
94.8406,502.6
94.8431,556.6
94.8748,679.5
94.9105,334.8
94.9223,22.2
94.9295,514.8
94.9407,68.1
94.9641,738.4
94.9695,462.3
94.9728,185.2
94.9963,571.5
95.0006,20.8
95.0356,17.6
95.0445,3712.4
95.049,428261.4
95.051,22.7
95.0853,215.3
95.095,99.9
95.139,77.3
95.1485,486
95.1572,264.8
95.1897,69
95.1999,66.3
95.2197,666.3
95.2792,287.9
95.3258,65.8
95.3372,306
95.3458,540.7
95.35,542.8
95.3535,101.8
95.4195,286.5
95.4255,76.9
95.4483,237.7
95.4683,328.5
95.4685,342.3
95.4927,21.9
95.4979,111.8
95.5002,295.3
95.5109,59.8
95.5201,193.1
95.5574,434.7
95.5612,190.6
95.5667,44.3
95.5984,52.8
95.6303,87
95.6701,44
95.6905,49.8
95.7222,286.5
95.7459,59.2
95.7516,587.3
95.7708,64.3
95.7971,359.2
95.7988,147.3
95.812,145.9
95.8774,416.2
95.881,62.6
95.8892,21.6
95.9096,48.2
95.9194,102.3
95.9253,146.7
95.9759,261.5
95.9797,202.6
96.0261,259.8
96.047,323.5
96.0523,20736.3
96.0553,23.5
96.0628,132
96.0697,83.4
96.119,53.9
96.1202,179
96.1454,565.5
96.181,45.7
96.2076,57.8
96.2249,88.4
96.2259,553.5
96.2349,424.8
96.2482,420.6
96.2496,42.2
96.2983,83.4
96.3019,50.7
96.4129,53.3
96.4547,50.6
96.4947,188.8
96.4983,56
96.5325,816.5
96.5454,62.4
96.5567,166.5
96.5646,77.4
96.6243,105.7
96.6363,315
96.6501,551.1
96.6631,147.9
96.7366,23.2
96.7457,144.9
96.7704,149.6
96.7724,130.6
96.7898,16.7
96.7939,100.5
96.8362,169.3
96.8792,105.8
96.8819,290.6
96.8981,210.8
96.9216,118147.6
96.9502,75.5
96.9633,321.5
96.9764,107.8
97.0033,177.4
97.0075,83.4
97.0165,20.3
97.0323,19.2
97.0556,78.7
97.0578,54.4
97.0586,122.8
97.1001,324.1
97.1314,27
97.1375,88.9
97.1448,728.9
97.1479,104
97.1769,148.2
97.1803,52.1
97.1897,678.8
97.2074,231.7
97.2085,17
97.2195,223.2
97.2271,153
97.2362,359.4
97.2477,153
97.2809,18
97.303,159.5
97.3176,641.1
97.3763,75.9
97.4295,105.6
97.4814,19.7
97.4885,21
97.5321,576.9
97.5978,108
97.6257,504.8
97.6359,43.1
97.6477,72.9
97.6502,144.4
97.6894,81.8
97.6907,122.9
97.7012,486.3
97.746,572.4
97.7954,627.3
97.8061,53.7
97.8222,50.8
97.8311,194.2
97.8607,223.6
97.8619,412
97.8777,227.5
97.8931,70.3
97.9026,204.8
97.9137,550.8
97.9504,76.1
97.9677,56.1
97.9827,369.1
97.9979,75.6
98.0441,196.3
98.0484,658.7
98.0523,377.5
98.0935,42.4
98.1508,372.6
98.172,318.8
98.1836,364.2
98.2122,20.1
98.229,89.3
98.2325,182.3
98.2347,283.9
98.2414,280.7
98.2503,338.5
98.2515,204.3
98.259,21.5
98.2776,108.5
98.2976,345.2
98.3114,116
98.3138,224.9
98.3147,221.3
98.3428,347.9
98.358,63.4
98.3751,563.4
98.3879,55.4
98.4035,81.6
98.4389,42
98.4524,47.7
98.4557,66.7
98.4748,26
98.5241,131.7
98.5418,322.8
98.6116,18.9
98.6141,75.1
98.6576,75.9
98.6727,747.5
98.6811,94.1
98.6843,437.3
98.7075,51.7
98.7115,624.5
98.7654,125.5
98.8388,151.4
98.8513,150.4
98.8551,111.6
98.8817,53.1
98.8838,187.3
98.9186,33690.3
98.9197,3097.1
98.9455,94
98.9752,4119.2
98.984,94.6
98.9954,374.5
99.0437,620.5
99.0705,95.5
99.109,21.6
99.1274,1012.4
99.2027,225.6
99.2057,63
99.2569,61.5
99.2686,56.2
99.2947,318.8
99.3036,54.3
99.3058,52.4
99.3168,224.6
99.3304,177.9
99.3346,450.9
99.3412,651.1
99.3968,371.4
99.4017,231
99.4217,48.2
99.4476,164.8
99.4631,162.9
99.4815,433
99.5357,23.4
99.5389,109.7
99.5423,360.6
99.5492,151.5
99.6237,136.5
99.648,17.7
99.6786,689.6
99.6828,681.3
99.7656,314.9
99.7866,89.7
99.7897,81.2
99.8134,72.4
99.8355,249.5
99.8382,100.8
99.8491,386.8
99.8634,271.5
99.8686,74.2
99.875,81
99.9012,665.2
99.9215,76.6
99.9368,422.3
100.0443,613.9
100.0894,343.4
100.0909,108.2
100.0929,293
100.1089,147.9
100.1504,593.3
100.1846,64.6
100.199,58.8
100.2293,327.8
100.2401,57
100.2567,192.1
100.2604,179.8
100.2736,303.1
100.2962,105.1
100.3057,214.3
100.3198,105.9
100.334,314.2
100.3593,200.8
100.3873,284.2
100.4081,176.6
100.4192,79.7
100.4869,20.6
100.5008,152.7
100.5303,45.6
100.605,42.3
100.6318,205.5
100.6363,602.5
100.6541,62.9
100.6871,18.6
100.694,156.1
100.6978,358.8
100.727,257
100.7613,110.5
100.7661,433.2
100.8238,74.4
100.8355,204.3
100.8374,500.9
100.8558,125.9
100.8607,214
100.8911,143.7
100.8935,64.7
100.9038,106.7
100.9168,406.4
100.9682,100.3
101.0184,457.8
101.0247,58.2
101.0258,53.8
101.0425,667.3
101.0454,356.3
101.047,3195.9
101.0708,71.8
101.0851,61.4
101.0932,484.4
101.1028,124.4
101.15,18.8
101.1577,607.3
101.1604,361.1
101.1874,177.9
101.1886,180.5
101.2001,96.2
101.2125,20.9
101.2178,510.9
101.2409,568.4
101.2498,59.7
101.3246,65.5
101.3261,655.5
101.3311,288.7
101.3327,103.1
101.3514,61
101.3605,19.1
101.3747,494.8
101.3812,354.4
101.4305,52.6
101.4498,159.2
101.5229,101.4
101.5239,107.2
101.5404,490.6
101.5587,256.6
101.567,92.9
101.5869,651.4
101.6094,49.7
101.6111,333.1
101.6173,77.4
101.6451,623.8
101.6654,243.2
101.6716,109.4
101.8177,59.1
101.8239,49.5
101.8247,132.7
101.9622,65.6
101.9968,126.9
102.0139,62
102.0177,176.6
102.0227,188
102.0504,52.6
102.0548,6247
102.0763,97.1
102.1608,396
102.1853,165.3
102.2036,24.4
102.2189,50.7
102.2361,46.8
102.2676,137.6
102.2816,58.1
102.2847,229.6
102.2936,109.3
102.3069,20
102.4271,61.4
102.4431,229
102.4483,637.4
102.5167,213.3
102.5182,571.5
102.5342,740.4
102.5378,44.7
102.5391,127.3
102.5499,182.4
102.606,304.7
102.615,359.9
102.6807,181.1
102.7466,53.9
102.7547,102.7
102.7671,21.5
102.8116,19.4
102.8334,41.7
102.8554,601.4
102.8576,53.2
102.86,458.1
102.9169,127.2
102.9266,172.7
102.929,104.2
102.9316,120.8
102.966,564.9
102.9701,553
102.9742,72.9
102.977,81.2
102.9959,71.3
102.9999,166.3
103.054,112.1
103.0582,140.7
103.129,81.1
103.2186,74.1
103.2345,287
103.2662,307
103.2669,350.2
103.2697,376.6
103.3149,741.5
103.3448,90.7
103.354,357.6
103.3827,124.6
103.4013,69.1
103.4421,58.6
103.474,62.9
103.4753,436.7
103.4785,80.6
103.4847,66.9
103.5089,59.2
103.538,51.3
103.5488,55
103.5748,287
103.6155,81.2
103.6563,43.9
103.6734,26.3
103.6831,301.3
103.6869,672.9
103.7073,19.1
103.7467,81.5
103.7655,129.5
103.8026,307.2
103.8071,569.2
103.8714,20.2
103.9198,632.7
103.9527,685.1
103.9668,181.9
103.9708,61
103.9818,132.6
103.9843,558.2
104.0088,58.3
104.0253,58.1
104.0395,82.4
104.0676,806.2
104.0705,78.1
104.0931,68.4
104.1068,322428.6
104.1396,320.2
104.1581,113.6
104.1736,162.8
104.1778,369.4
104.1821,133.7
104.2004,289.2
104.2316,139.7
104.2648,58.2
104.277,71.7
104.2894,66.2
104.3216,70
104.35,266.6
104.3588,207.7
104.3742,420
104.3942,748.7
104.3959,230.7
104.4017,329.5
104.4157,186.1
104.4313,158.5
104.4417,592.3
104.5077,232.9
104.5122,110.2
104.5278,718.9
104.5429,60.3
104.5756,163.2
104.6257,51.6
104.6437,108.3
104.6464,345.8
104.6938,260.7
104.7173,175.6
104.7326,57.9
104.7412,1264.6
104.7758,666.8
104.7797,96.1
104.8009,80.9
104.8518,127.2
104.8833,274.7
104.8947,115
104.8962,700.6
104.9356,123.4
104.9632,211.5
104.9643,126.8
104.9806,58.4
105.005,68.6
105.0103,664.9
105.012,597.5
105.0446,42237.6
105.062,21.9
105.0771,682.7
105.0802,129.1
105.1102,10222.5
105.1372,43.4
105.1657,20.8
105.1706,587
105.1727,322.7
105.1832,302.7
105.1972,79.7
105.2839,285.6
105.3074,80.1
105.3097,145.3
105.3266,651.1
105.328,587.1
105.4036,363.7
105.4464,103.5
105.4684,430.1
105.4775,105.9
105.5156,96.2
105.5314,62.6
105.5402,327.2
105.5463,138.9
105.5819,139.1
105.5953,46.7
105.6204,47.5
105.6297,82.2
105.6561,22
105.6791,107.9
105.6799,125.8
105.6943,380.8
105.7575,180.3
105.7841,48.2
105.7886,347.9
105.8092,285.5
105.8149,180.7
105.8488,45.1
105.8572,182.8
105.8988,43.3
105.9673,67.7
105.9815,287.7
105.9955,55.1
106.0189,65.7
106.0415,341.7
106.0479,468.9
106.0828,549.3
106.1014,169.1
106.1075,68.6
106.112,446.8
106.1425,647.5
106.1728,50.2
106.1743,127.5
106.2193,57.8
106.2294,70.8
106.2528,58.3
106.3195,136.6
106.3272,49.8
106.366,70.7
106.3873,192.4
106.3931,42.9
106.4177,53.8
106.4207,267.3
106.4226,129.4
106.4645,87.2
106.4785,56.7
106.4929,533.1
106.5587,535.5
106.5745,754.2
106.5883,24.4
106.6023,180.8
106.6534,44.4
106.6922,56.5
106.7126,171.2
106.7303,384.9
106.735,286.2
106.7608,223.5
106.7722,533.3
106.7796,654.5
106.8057,45.3
106.807,363.5
106.8563,98.9
106.8895,654.7
106.8956,129.1
106.9159,513.8
106.9475,154.4
106.9505,1697.2
106.975,185.3
107.0282,67
107.049,1421.4
107.0772,54.1
107.0853,303.1
107.1332,668.2
107.1663,64.3
107.1741,110.4
107.1792,168.9
107.1991,55.6
107.2073,141.6
107.223,58.9
107.2919,114.4
107.3034,42
107.3255,401.4
107.3364,98.1
107.3513,150
107.4385,567.5
107.4411,214.4
107.4755,22.1
107.508,739.8
107.5097,84.6
107.5187,166
107.5199,489.1
107.5659,93
107.6417,140
107.664,334.7
107.6722,66.7
107.6802,244.1
107.7528,68.9
107.7546,274.5
107.7792,768
107.7826,106.1
107.8116,16.8
107.8492,352.8
107.9306,20.2
107.9659,25.9
108.0044,121.4
108.0677,332.5
108.0865,19.4
108.1088,49.8
108.1226,57.4
108.1312,209.5
108.1513,297.3
108.1683,704.2
108.2367,44.5
108.2605,504.7
108.2627,80
108.2644,176.9
108.282,251.2
108.2942,330.2
108.3135,115.5
108.334,697.2
108.373,165.1
108.3999,132.3
108.4245,124.5
108.4308,22.1
108.4385,1395
108.4395,106.8
108.4478,110.3
108.4827,78.9
108.5267,20.3
108.5446,49.9
108.5557,80.1
108.5734,77.8
108.5838,453.7
108.6259,63.5
108.6974,470.3
108.7421,591.9
108.7987,511.7
108.853,161.3
108.9128,136.9
108.941,61.6
108.945,116.5
108.9633,121.7
108.9669,60.5
109.0453,346.7
109.0475,793
109.0544,18.8
109.0604,786.3
109.0647,129454
109.0809,20.3
109.0879,51.1
109.098,134.7
109.101,387.8
109.1144,21.3
109.1662,793.7
109.186,54.3
109.1944,244.3
109.1956,469.3
109.2078,51.4
109.2169,22.7
109.2308,471.4
109.3172,108.8
109.3348,56
109.3563,246.3
109.3747,104.5
109.3881,241.6
109.4131,200.8
109.4143,124.5
109.4434,80.3
109.4827,124.2
109.4944,43.2
109.5145,52.3
109.539,117.8
109.5491,43.9
109.5496,45.2
109.5572,369.5
109.5795,73.5
109.5856,25.2
109.5929,65.6
109.6202,79.5
109.6237,195.9
109.6605,136
109.6766,678.9
109.6946,75.9
109.6959,537.6
109.7193,20
109.7408,80
109.7548,190.2
109.9484,72.7
109.9647,804.6
109.9796,166.2
109.9933,22.3
110.0503,41.4
110.068,6194.9
110.0712,1626.8
110.105,112.8
110.1084,135.8
110.1242,562.1
110.1406,199
110.1462,647.7
110.1924,179.6
110.2328,679.5
110.2394,603.7
110.2864,18.9
110.2982,565
110.3206,19.3
110.4169,356.4
110.4389,20.6
110.4457,113.1
110.4579,137.4
110.4802,91.1
110.4924,655
110.512,19.1
110.5375,598.7
110.5697,189.1
110.6327,280.5
110.6508,546.3
110.7256,385.2
110.7412,338.2
110.8074,123.5
110.8191,648.1
110.8337,44.3
110.8692,108.6
110.8743,586.7
110.8891,29.8
110.8959,697.3
110.9541,54.1
110.957,54.1
111.0231,227.4
111.044,207.6
111.0801,74
111.1007,291.4
111.1773,24
111.1833,552.7
111.1927,318.2
111.1962,303.9
111.2224,69.6
111.2424,61.2
111.2805,95.6
111.2907,49
111.3208,90.2
111.3434,593.6
111.3578,92.7
111.4118,63.1
111.4439,573.2
111.6357,126.4
111.6559,20.3
111.6855,496.8
111.6919,349.7
111.7013,77
111.7247,53.1
111.7439,103.9
111.7833,20.2
111.8119,237.5
111.8152,155.3
111.8562,20
111.8919,96.5
111.8977,255.8
111.9138,48.4
111.9321,114.1
111.9353,85
111.9397,55.2
111.9506,535.6
111.9522,20.6
111.9662,71.8
111.9678,115
111.9889,140.4
112.0544,70.8
112.1319,65.5
112.1434,87.7
112.1489,22.4
112.2915,53.2
112.3057,222.8
112.31,204.4
112.3255,651.1
112.3519,70.9
112.3756,126.3
112.3809,24.1
112.3973,258.6
112.4376,93.2
112.4468,58
112.4608,86.3
112.4918,17.8
112.5054,48.8
112.5235,309.5
112.5367,121.9
112.5403,112.4
112.5864,19.7
112.6613,122
112.6897,43.6
112.727,438.6
112.7322,129.5
112.7428,45.9
112.8181,346.2
112.8588,335.2
112.8767,241.6
112.8956,365878.5
112.9014,46.4
112.9523,165.2
112.9683,277.4
112.9815,630.1
113.0116,55
113.0257,65.2
113.0289,62.3
113.0665,173.6
113.1717,152.4
113.185,50.4
113.2301,58.8
113.2505,672.9
113.2523,25
113.2698,63.8
113.2739,90.3
113.2752,314.9
113.2915,87.3
113.3082,758.6
113.3194,64.1
113.3334,59.6
113.341,550.4
113.3581,104.6
113.3786,153.4
113.419,618.2
113.4489,42.3
113.4711,935.3
113.4868,49.5
113.5022,20.3
113.5301,146.8
113.5423,189.3
113.5949,732.2
113.6286,147.1
113.6532,221.2
113.6728,76.8
113.6973,70.2
113.702,164.9
113.7556,224.7
113.758,173.9
113.7731,73.9
113.793,56.5
113.7949,136
113.7969,425.4
113.8527,22.4
113.8614,622.4
113.8645,230.4
113.8981,58.1
113.9009,140.7
113.9182,282.1
113.9498,150.2
113.9702,535.5
114.0426,638.2
114.0549,77339.7
114.0661,3383.4
114.1001,117.1
114.1676,72.1
114.1856,65.9
114.1956,553.3
114.2499,20.7
114.2605,23.9
114.2718,62.7
114.2764,104.5
114.2969,448
114.301,219.9
114.3157,191.1
114.3202,556.8
114.3684,516.8
114.4587,398
114.4841,553.7
114.4951,51.6
114.548,179.9
114.5558,341.8
114.5929,76.1
114.6728,780.7
114.6862,240.1
114.7097,74.6
114.7322,255.1
114.736,76.4
114.7961,183.4
114.8713,18.6
114.8927,110189.9
114.9075,109.2
114.9134,56.2
114.9325,415.1
114.9479,21.4
114.9937,405.2
115.0103,745.8
115.0187,69.6
115.0325,134.9
115.0582,2482.8
115.0643,161.6
115.0866,662
115.1132,147.4
115.129,117.9
115.1569,329.3
115.182,74.9
115.2261,188.2
115.3281,320.8
115.3298,291.9
115.3496,45.7
115.4184,82.3
115.4198,56.5
115.4228,62.3
115.4283,465.9
115.4441,301.8
115.502,459.7
115.5215,466.1
115.5617,693.4
115.637,106.6
115.652,201.7
115.689,341.8
115.7261,63.7
115.728,342.7
115.768,587.7
115.8395,304.6
115.8436,73.1
115.8805,152.1
115.8878,713.4
115.8953,65.6
115.9106,55
115.9234,91.7
115.9647,732
115.9938,252.4
116.0052,89.7
116.0303,51.7
116.0493,317.4
116.0705,7037.2
116.0794,110.9
116.0834,199.8
116.0947,165.7
116.1082,276.4
116.1132,398.4
116.1183,132.6
116.1395,754.9
116.2313,209.3
116.3017,21.9
116.3368,48.8
116.3578,86.5
116.3754,184.9
116.38,390.4
116.4057,332.9
116.4675,153.2
116.4688,93.1
116.5146,287.8
116.5428,180.3
116.5599,151.1
116.5937,120.5
116.628,28.9
116.6334,708.9
116.6557,790.6
116.7101,49.3
116.7283,116.1
116.8726,219.4
116.8835,62.2
116.8891,211.6
116.8908,10949.4
116.9086,239.6
116.9519,328.5
116.9788,691.1
116.9859,3911.4
117.0027,59.3
117.0241,310.3
117.0773,344.3
117.111,51.9
117.1146,115.3
117.1496,121.8
117.1671,172.1
117.1687,189.6
117.1973,196.8
117.226,204.3
117.2299,85.7
117.2532,40.1
117.2749,117.1
117.2822,211.8
117.302,41.5
117.311,395.2
117.3119,602.1
117.3626,672.5
117.3959,155.9
117.4194,57.1
117.4516,90.7
117.4541,48.2
117.465,58.7
117.4969,146
117.5199,305.7
117.5622,73.2
117.6036,49.5
117.623,86.9
117.6383,110.2
117.64,1153
117.6491,44
117.665,349.1
117.6772,187.8
117.7119,397.6
117.7246,626.8
117.7509,93.2
117.824,278.3
117.8279,572.3
117.8507,21.6
117.8615,615
117.877,290.6
117.9522,65.8
117.9769,15.7
117.9984,153.6
118.0022,60.2
118.0381,75.5
118.0862,138.4
118.0875,573.7
118.0931,55.7
118.1224,459.1
118.1365,18.3
118.1695,52.4
118.1784,97.5
118.1956,73.8
118.2624,589.6
118.4228,72.7
118.4378,64.7
118.4533,674.7
118.4592,100.2
118.4689,64.6
118.4825,75.2
118.4861,535.8
118.5027,18.5
118.5062,686.6
118.5106,324
118.5295,334.1
118.5449,105.3
118.5943,318
118.6119,58.7
118.6168,347.2
118.6413,698.7
118.6458,120.6
118.6639,143.5
118.6769,194.4
118.6849,104.2
118.7029,47.4
118.719,301.8
118.7225,157.1
118.7494,124
118.8147,53.2
118.8229,122.1
118.8307,326.5
118.8627,75.6
118.9042,400.5
118.9269,308
118.9524,172.5
118.9847,334.1
119.011,419
119.0188,47.1
119.0379,106.7
119.0983,89.1
119.1231,85.9
119.1238,84.8
119.1491,74.9
119.2105,74.2
119.2183,115.4
119.252,72.9
119.258,426.7
119.2629,73
119.2678,115.3
119.272,49.7
119.3304,178.7
119.348,316.3
119.3622,277.3
119.4034,566.6
119.4291,67.3
119.4923,201.5
119.4942,17.8
119.5224,50.4
119.544,22.2
119.5942,53.9
119.6406,154
119.6504,643.8
119.7011,54.6
119.7206,61.2
119.79,192.9
119.8023,100.4
119.8722,160.6
119.8823,99.2
119.8971,471.7
119.9712,351
120.0032,2899.3
120.0381,46.6
120.0391,569.1
120.0585,117.4
120.0658,35.6
120.0807,5215.7
120.0821,301.3
120.0927,105.7
120.0983,67.2
120.1123,130.6
120.1216,17.5
120.2283,55.4
120.3311,92.8
120.3677,126.2
120.385,156
120.3931,45.1
120.4248,241.1
120.4327,255.8
120.4759,319.8
120.4859,626.6
120.5019,153.2
120.5415,284.1
120.5446,209.7
120.5648,742.9
120.5961,806.8
120.6082,259.8
120.6471,127.7
120.7261,126.4
120.7365,66.1
120.7601,478.6
120.8615,18
120.921,173
120.9505,59.1
120.9807,141.4
121.0075,405.5
121.0185,81.8
121.0284,431.5
121.0397,24.4
121.0984,564.3
121.101,32.9
121.1202,66.6
121.1396,65.7
121.1791,78.4
121.2017,444.3
121.2298,159.1
121.2802,294.7
121.2896,99.8
121.2948,140.8
121.3316,22.1
121.3525,764.4
121.4181,115.9
121.5407,77.1
121.6173,159.3
121.6595,449.8
121.6616,708.9
121.6996,285.6
121.7732,299.9
121.7834,134.5
121.8067,661.6
121.8083,58.2
121.8293,250.1
121.8428,183.7
121.8468,71.5
121.8555,410.6
121.863,82.8
121.8754,75.2
121.9116,17.6
121.9208,595.4
121.9235,53.1
122.0128,160.5
122.0497,46.8
122.0766,412.1
122.0934,53.6
122.1142,108.9
122.1663,136.4
122.1934,45
122.2087,191.4
122.211,177.4
122.2519,82.2
122.2886,267.3
122.3272,638.8
122.3472,117
122.3765,301.7
122.3801,103.6
122.3972,60.6
122.4604,540.3
122.4883,776.4
122.4956,18.3
122.4982,106.9
122.5177,140.8
122.5533,75.3
122.563,188.8
122.577,364.3
122.6231,747.7
122.6643,282.2
122.6693,73.9
122.7246,69
122.7397,256.1
122.8025,42.6
122.8127,503.6
122.82,173.7
122.8637,79
122.9244,13451.9
122.9542,101.9
123.0109,282.4
123.0558,291.7
123.059,318.8
123.06,21.3
123.0815,84.2
123.1165,26.7
123.1655,116.3
123.2078,120.9
123.2315,165
123.2655,232.9
123.286,190.8
123.3144,487.6
123.332,217.4
123.3332,126
123.3555,219.4
123.3919,461.3
123.4074,300.6
123.4175,348.1
123.4845,92.8
123.5096,87.9
123.5801,59.1
123.5977,199.9
123.6102,62.9
123.6507,86.2
123.66,112.3
123.712,72.1
123.8019,334.9
123.8366,131.5
123.8395,121.4
123.8525,165.7
123.8848,194.1
123.8912,605.2
123.8988,442.6
123.9077,128.9
123.9932,332
124.006,692.9
124.019,401.8
124.0221,88.7
124.0346,50.4
124.057,218.2
124.0779,371.6
124.0932,298
124.1262,75.7
124.1538,121.8
124.1948,463.4
124.2089,267.6
124.2341,825.9
124.2551,213.1
124.2583,49.7
124.2749,797.4
124.3026,273.2
124.3104,361.2
124.3634,159.9
124.3711,584.6
124.3774,306.6
124.3877,89.2
124.4003,79.2
124.4238,211.4
124.4368,73.4
124.4843,70.5
124.5041,155
124.5185,78.7
124.5489,76.3
124.6691,330.9
124.68,87.8
124.7034,335.7
124.7265,1769.2
124.7368,330.2
124.9151,53.8
124.9674,1270.5
124.9792,480.3
124.9999,2282.5
125.0055,197.8
125.0388,381.2
125.0523,65.4
125.0576,59.1
125.0597,97.2
125.1112,77.4
125.1272,179.1
125.1384,329.3
125.1612,66.3
125.1701,113.9
125.1857,18.4
125.2056,234.2
125.2156,25
125.2551,86.2
125.3257,512.2
125.4129,384.1
125.4227,84
125.4451,86.8
125.4674,353.7
125.5714,113.5
125.6111,232.6
125.6192,112.8
125.6651,69
125.6757,93.1
125.6899,62.3
125.7041,650.2
125.7387,184.8
125.7706,112.5
125.7795,248.3
125.8687,561.5
125.8888,59.4
125.9639,818.3
126.0226,132.4
126.0595,764.4
126.1286,579.2
126.136,106.8
126.1412,129.9
126.1758,111.3
126.1878,157.9
126.1952,345.6
126.2205,56
126.2241,48.6
126.2457,18.8
126.3413,318.2
126.3767,205
126.3839,48.8
126.3949,775.2
126.4002,58.1
126.4042,308.3
126.4609,686.2
126.4805,200.6
126.5255,233
126.5533,219.5
126.5839,413
126.593,93.7
126.676,140.7
126.6873,161
126.7442,19.1
126.7736,209.2
126.7987,23.2
126.8086,120.7
126.8129,223.7
126.8884,125.1
127.0036,313.9
127.0381,69.7
127.0471,92.5
127.0851,188.6
127.1718,555.5
127.1815,81.3
127.2456,18.8
127.3132,56.8
127.3258,91.3
127.3477,18.5
127.3499,119
127.3626,138
127.3725,54.6
127.3905,243.4
127.4692,21.7
127.5688,59.6
127.5742,410.1
127.6483,145.3
127.7094,148.6
127.8198,141.2
127.8293,381
127.8587,88.8
127.8855,396.8
127.918,17.3
127.93,174.5
127.9492,153.5
127.955,540.6
128.0097,55.6
128.0288,222
128.0975,125.7
128.1622,78.9
128.1818,24.3
128.2372,606.6
128.3423,42.6
128.3451,98.9
128.3482,71.7
128.4312,137.8
128.4437,91
128.4609,225.5
128.4664,188.1
128.4704,533.9
128.5287,704.1
128.563,17.4
128.5982,351
128.7025,124.3
128.7145,157.1
128.735,19.9
128.7771,102.7
128.7842,195.1
128.7979,426.4
128.8246,290.1
128.8489,388
128.8662,83.3
128.9003,236.2
128.9401,59.7
129.0031,742.7
129.0605,23.9
129.0657,1014.6
129.0984,53.9
129.1024,770.1
129.1697,625.1
129.1856,327.6
129.3376,360.8
129.3474,468.5
129.3765,142.2
129.3858,208.3
129.4303,114.5
129.4752,182
129.5244,491.1
129.5489,199.3
129.5552,234.6
129.562,375.2
129.5764,52.1
129.6235,163
129.6277,55.9
129.6414,21.8
129.6877,58
129.6915,580.3
129.7018,178
129.707,148.9
129.7287,144.5
129.7872,48.1
129.7942,272.6
129.8456,51.2
129.9349,24.9
130.0498,10075.2
130.0617,47.8
130.0861,538.3
130.1417,147.6
130.145,19.7
130.1568,561.9
130.205,109.1
130.2092,77
130.211,91
130.2218,717.7
130.2577,194.1
130.3244,196.5
130.3358,22.9
130.3507,638.3
130.3764,118.7
130.4161,331.4
130.4635,349.9
130.4906,155.4
130.5142,230
130.5542,334.4
130.6212,69.8
130.6415,189.3
130.6492,160.4
130.6554,51.1
130.7081,177.1
130.7301,77.6
130.7493,164.1
130.7884,126.1
130.7917,401.5
130.8469,97.4
130.8608,580.5
130.9437,610.3
130.9466,132.5
130.977,790.4
130.9833,336.9
131.034,162.2
131.1263,77.1
131.1514,131.4
131.2081,640
131.2317,206.2
131.2435,300.6
131.323,606.3
131.3493,67.7
131.354,117.8
131.3676,204.6
131.3794,47.7
131.4063,291.5
131.4137,484
131.4781,350.9
131.4792,606.4
131.4858,148.6
131.5212,63.8
131.5237,53.5
131.5407,68.1
131.5482,42.1
131.5676,24.2
131.5737,49.7
131.5841,442.8
131.6098,87.2
131.6307,307.9
131.6369,303.3
131.6747,739.9
131.7024,120.2
131.7281,132.1
131.7298,46.4
131.7564,39.6
131.8492,48.7
131.8727,297.3
131.9034,317
131.9083,905.1
131.9245,287.7
131.9276,471.1
131.9455,371.5
131.954,163.7
131.9815,50
132.0031,31217.4
132.0395,65.1
132.0565,51.2
132.0588,64.4
132.0655,158434.7
132.121,47.9
132.1752,362.4
132.2047,56.2
132.2094,46.8
132.2561,221.2
132.2608,668.7
132.3163,394.2
132.3413,184
132.3849,246.9
132.3927,192
132.4227,825.9
132.4388,138.9
132.4893,61.4
132.5335,267.7
132.5383,119.9
132.5595,20.3
132.5656,113
132.7177,111.8
132.7231,76
132.725,59.2
132.7412,148.2
132.7742,72.2
132.7833,74.1
132.8041,211
132.8185,180.2
132.8342,116.7
132.8619,138.3
132.921,119.9
132.9325,115.7
132.9339,157.7
132.9583,27.3
132.9872,1540.5
132.9905,144.1
133.0022,483.5
133.006,194.6
133.026,271.1
133.0317,262
133.0347,21
133.0399,208.3
133.0688,4744.7
133.0971,21648.1
133.1013,82.7
133.1864,141.9
133.1956,18.1
133.2122,56.6
133.2291,385.9
133.2388,103.1
133.2526,204.7
133.2545,272.6
133.2765,246.2
133.345,64.4
133.4307,75.6
133.4532,151.8
133.4569,53.5
133.4816,17.9
133.6174,790.1
133.6801,68.1
133.6899,138.9
133.8317,50.4
133.9367,212.4
133.9576,107.5
134.0144,649.3
134.0188,9059.8
134.0742,50.8
134.0782,214.6
134.0997,426.8
134.1002,424.9
134.1008,211.6
134.1021,193.8
134.1569,84.5
134.2091,115.9
134.2679,681.4
134.2949,57.2
134.3055,20.3
134.3098,54.1
134.4532,93.1
134.4731,113.5
134.4833,284.7
134.5256,234.6
134.5778,42.8
134.5903,71.2
134.5979,223.7
134.6122,585.4
134.6494,144.1
134.6764,82
134.7474,158.3
134.8554,18.1
134.8707,702.3
134.8885,19.5
134.9136,57.2
134.9225,114.6
134.9965,66
135.0028,41331.7
135.0081,85.7
135.07,139.7
135.0864,196.8
135.1165,748
135.1596,67.2
135.1975,591.9
135.199,582.8
135.2848,75
135.296,151.5
135.3277,434.3
135.3913,373.7
135.4102,289
135.4293,60.2
135.4627,165.6
135.4778,176.9
135.5097,636.3
135.5163,322
135.5248,60.7
135.5314,62.2
135.6129,335.1
135.6907,189.1
135.7033,240.8
135.7352,133.8
135.8066,210.6
135.8262,219.5
135.836,129.3
135.8855,26.4
135.9004,316.4
135.9236,61.6
135.9271,70.4
135.9545,756.1
135.9657,637.5
135.97,169.4
135.9754,135.8
135.9771,566
135.9931,116.4
136.0135,824.8
136.0211,62.5
136.0481,8969
136.0636,79.9
136.0756,2868.7
136.0778,29.1
136.0856,46.5
136.1026,18.8
136.1255,63.5
136.1359,72
136.1498,162.9
136.1557,146
136.2257,44.2
136.2614,339.5
136.3122,621.6
136.3463,115.2
136.4042,750.2
136.4601,283.7
136.4719,299.5
136.546,75.8
136.5532,85.2
136.5719,65.1
136.6192,362.6
136.668,103.3
136.7048,328.1
136.76,108.9
136.7774,65
136.8288,710
136.8477,557.2
136.8611,146.8
136.9164,70.3
137.0279,401
137.0597,28.9
137.0828,416.8
137.0942,258.4
137.1358,93.9
137.1793,246.4
137.2042,136.5
137.259,117.1
137.2983,58
137.3321,325.7
137.3394,159.3
137.4113,95.5
137.4235,623.6
137.4469,124.7
137.4671,137.1
137.4855,67.8
137.5418,363.1
137.5438,172.9
137.5865,289.3
137.6313,222.5
137.6476,82.2
137.6974,130.2
137.7295,60.2
137.7591,142.6
137.7596,145.7
137.7697,24
137.7779,122.9
137.7823,63.5
137.7973,241.9
137.8092,284.8
137.8505,410
137.8712,20.5
137.8907,61.8
137.9302,276.3
138.0525,10277.1
138.0661,70.1
138.1078,21.7
138.1813,407.9
138.1935,248.7
138.199,64.2
138.209,202.6
138.298,108.4
138.3155,62.5
138.3463,149.7
138.3659,79.7
138.3962,113.2
138.5073,44.7
138.5155,77
138.5439,357.8
138.5534,643.9
138.5779,58.8
138.6349,82.1
138.6561,226.8
138.6588,113.3
138.6742,313.9
138.707,579.5
138.7276,609
138.7688,245.7
138.782,572.6
138.8138,179.8
138.8487,51.4
138.9064,2594.7
138.9278,256
138.934,20.4
138.9599,567.7
138.975,191.3
138.9933,157.1
139.0776,304.2
139.2204,53.4
139.2392,210.7
139.245,153.4
139.2632,608
139.3388,164.1
139.412,142.4
139.4562,130.9
139.5506,633.7
139.5579,56.3
139.5694,124.5
139.6042,96.7
139.616,80.3
139.7129,948.9
139.7244,443.7
139.7292,118.6
139.735,18.3
139.7477,47.5
139.7599,54.5
139.7606,69.5
139.7612,67.8
139.7662,64.3
139.7789,648.3
139.7858,750.4
139.8419,408.9
139.9123,75.7
139.9497,134.8
139.9918,529.7
140.0081,495
140.0164,721.4
140.0682,5803.1
140.1069,80.3
140.1126,138.2
140.1824,126.1
140.3815,251.1
140.3879,129.9
140.4236,138.2
140.4688,163.3
140.5343,114.5
140.5767,114.7
140.6221,368.9
140.7078,55.9
140.7573,830.8
140.7725,281.1
140.8621,74.2
140.9033,945.6
140.985,50.1
141.0004,31022
141.0162,116.7
141.0335,75.1
141.0621,663.5
141.087,86.7
141.0898,49.2
141.113,147.3
141.1188,52.8
141.274,184.2
141.2841,18.9
141.3756,141.2
141.3915,378.9
141.4244,309.7
141.4425,62.6
141.5466,97.4
141.593,235.9
141.6057,83.3
141.6902,572.7
141.6958,86.8
141.7055,697.5
141.814,97.6
141.818,286
141.8923,24.8
141.9344,237.6
141.9992,181.7
142.0038,642.2
142.0173,330.7
142.0476,445.3
142.0533,759.5
142.0736,28
142.0828,318.3
142.146,45.3
142.1507,65.6
142.1773,66.7
142.3257,150.5
142.3367,51.9
142.3529,315.9
142.4268,67.2
142.4499,48.1
142.4642,117.9
142.4872,248
142.4994,959.7
142.5197,338.7
142.5428,716.4
142.5803,330.7
142.6169,176.4
142.741,803.2
142.7607,174.3
142.7818,208.1
142.8617,812.1
142.9501,16
142.9583,117.6
142.9963,239.5
143.0119,640.7
143.0189,916.5
143.0731,52.2
143.0815,378.3
143.0901,78.2
143.186,203.5
143.1887,106.6
143.2164,154.5
143.3221,23.6
143.3951,521.7
143.4656,106.9
143.531,175
143.6212,78.3
143.6293,117.2
143.738,857.6
143.7966,99
143.8134,357.5
143.8622,845.6
143.8643,381.4
143.9102,701.1
143.9514,280.2
143.9551,272.6
144.0838,327.1
144.0928,74.7
144.2274,186.9
144.2627,76.6
144.27,151.6
144.3726,142.6
144.4528,79.8
144.5557,164.3
144.6018,44.3
144.6048,79.6
144.6213,983.2
144.6267,138.1
144.6837,166.1
144.6877,23
144.701,115.7
144.7172,185.8
144.7282,59.2
144.7483,506.6
144.7582,299.3
144.7616,94.2
144.7804,374.8
144.7981,296.1
144.8899,64.2
144.9096,40
144.9152,19.6
144.924,28.8
144.9808,2984.2
144.9911,100.7
145.0078,70
145.0331,139.1
145.0749,101.9
145.0855,159.1
145.1481,136.8
145.1631,152.1
145.1949,523.9
145.2032,160
145.2218,208.5
145.2835,45.3
145.3328,59.6
145.337,127.5
145.4961,407.7
145.5001,79
145.5134,71.1
145.5406,66.7
145.5494,56.9
145.5503,55.6
145.6338,121.6
145.6624,370
145.6853,213.5
145.7004,44.3
145.7217,190.4
145.7425,111.9
145.7519,380.7
145.9225,121.3
145.9279,252.7
145.9643,62.3
145.9671,143.1
145.968,164.3
145.9739,622.2
145.9851,70.7
145.992,51.3
146.0124,2564.8
146.0188,20343.8
146.04,23.5
146.0939,368.5
146.1989,215
146.2232,201.7
146.2696,210.5
146.2886,221.9
146.2904,116.8
146.2958,693.7
146.3087,81.5
146.3495,333.6
146.355,132.7
146.3625,65.3
146.3637,254.7
146.3713,55.9
146.3958,264.8
146.4008,200.5
146.4268,80.8
146.5127,330.4
146.5428,391.1
146.5473,553.8
146.5801,378.7
146.6216,185.2
146.6462,171.3
146.7283,111.4
146.7434,74.4
146.7806,237.2
146.8535,388.5
146.8564,81.4
146.8783,93.1
146.9145,20.4
146.9289,139.5
146.939,27.9
146.9817,69026.2
146.9867,59
146.9994,448.9
147.0472,135.3
147.0764,67551
147.1059,17.5
147.1099,57.6
147.1128,32474.4
147.1167,930.5
147.2735,50.7
147.3,278
147.3222,52.5
147.3908,88.5
147.4519,331.4
147.4661,79.3
147.4945,396
147.4978,77.9
147.5652,278.9
147.5696,252.4
147.5865,103
147.5903,303.4
147.6619,93.9
147.6999,109.5
147.7026,112.9
147.8217,202.6
147.8517,734.4
147.8587,51.8
147.9918,199.8
147.9951,121.6
148.0132,818.8
148.068,233.6
148.0723,628.4
148.0797,771.5
148.0894,400.1
148.112,19.8
148.1844,57.5
148.2131,73
148.2234,199.7
148.2934,801.8
148.3167,570
148.4273,104.4
148.5001,318.4
148.532,1244.2
148.5493,128.1
148.5593,74.6
148.6077,109
148.6339,57.3
148.6721,584.5
148.709,217.8
148.7241,178.8
148.7967,44.6
148.9195,77.4
148.925,87.4
148.9298,411.9
148.9401,19.4
148.9469,22.2
148.9557,548.9
148.961,411.3
148.9696,744.8
149.0026,71.8
149.0185,1481.8
149.0233,6005.4
149.0881,424.9
149.1208,74.3
149.1324,110.3
149.267,49.2
149.2683,146.9
149.2934,757.6
149.336,336.4
149.351,54.2
149.3549,647.4
149.3681,610.3
149.4983,325.2
149.5311,139.3
149.5916,101.3
149.6149,23.6
149.6438,402.8
149.6559,237.6
149.7358,341.6
149.7798,59.6
149.7841,91.9
149.8071,77.7
149.8485,417.5
149.8548,401.5
149.8629,155
149.9106,716.3
149.9547,397.2
149.9833,467.1
149.9887,355.6
149.9927,4995.7
150.0138,3454
150.0536,148
150.0646,238.9
150.1655,548
150.2151,596.5
150.248,128.1
150.3029,308.7
150.3371,74.5
150.3956,702.5
150.4655,21.9
150.4831,117.8
150.4952,50.6
150.5039,243
150.5302,566.9
150.5462,111.1
150.55,91.9
150.6039,119.9
150.726,578
150.7668,126.5
150.8602,635.1
150.8766,414.7
150.9327,165.3
150.9386,85.9
150.949,50.9
150.9768,26090.5
150.9841,34.2
151.0077,620.3
151.0478,3661.3
151.0715,97.6
151.1431,330.3
151.1779,112.8
151.1841,691.6
151.1921,243
151.2076,635.1
151.3085,117.1
151.3315,56.7
151.3668,41.2
151.3858,574.4
151.4292,171.5
151.4791,96.3
151.5135,98.1
151.563,48.5
151.7028,537.3
151.7112,84.7
151.7583,105.8
151.7733,111.7
151.8758,372.8
151.9511,802.3
152.0161,73.6
152.0221,15447.3
152.0295,69.4
152.0317,3339.6
152.1056,68.3
152.1071,143.3
152.2044,845.4
152.2944,84.3
152.3423,117.8
152.3509,18
152.3865,212
152.4588,87.7
152.4955,119
152.5094,591.6
152.5759,17.5
152.6164,176.9
152.6844,208.9
152.7551,689.3
152.8281,94.5
152.8475,186.7
152.8844,126.3
152.8891,72.8
152.9077,54.7
152.9571,187.5
152.9687,67.8
152.9749,498.9
153.0235,48.2
153.0556,19.8
153.1099,471.7
153.1464,108.6
153.2176,48.9
153.2807,79.1
153.3269,106.7
153.3592,320.1
153.3709,74.9
153.5592,165.8
153.5906,87.5
153.6531,70.9
153.673,117.8
153.7447,254.3
153.7952,222.7
153.831,286.5
153.8826,438.7
153.913,106.7
153.9326,165.5
153.961,180.7
154.0111,1182.3
154.0265,1309.4
154.0588,333.2
154.1737,225.1
154.2131,227.8
154.2156,45.3
154.2203,67.5
154.2486,373.4
154.3043,63.4
154.3134,479.3
154.3506,27.4
154.3528,725.9
154.3972,78.3
154.4123,507.7
154.4219,49.2
154.4255,162
154.4399,236.4
154.4434,321.8
154.4524,255.5
154.4862,160.4
154.4994,152.4
154.5376,149.7
154.6476,62.6
154.7083,134.9
154.7148,41.6
154.7163,163.1
154.7448,22
154.7792,314.9
154.8695,151
154.8805,422.6
154.9113,155.7
154.916,20.4
154.9417,703.2
155.0428,2326.4
155.054,3252.3
155.0821,99
155.1047,164.7
155.1223,273.1
155.1373,210.5
155.2551,676.9
155.2807,66.6
155.3117,131.3
155.3644,336.3
155.3888,331.3
155.4609,703
155.469,59.8
155.5205,61.4
155.5292,251.2
155.6444,49.8
155.6583,117.6
155.6899,401.2
155.7447,287.8
155.8136,84.2
155.9354,278
155.9706,84.7
155.9974,315.7
156.0045,975.2
156.0096,423
156.0269,77.5
156.0291,734.1
156.0401,62.2
156.0422,7736.4
156.0469,116.8
156.0507,53.6
156.0572,28.6
156.0767,62886
156.1088,257.6
156.1333,197.2
156.1386,156.7
156.2217,204.4
156.2296,801.2
156.2312,488.8
156.2895,65.8
156.3236,339.4
156.3897,224.6
156.5777,562.1
156.5861,1213.3
156.6044,137.6
156.6256,604.4
156.7095,192.1
156.7545,454.8
156.7718,313.2
156.7833,231.9
156.8088,183.4
156.8152,570
156.8326,303.9
156.841,711.1
156.8613,79
156.9096,830.2
156.9348,461.3
156.9875,61
157.0197,151.6
157.0307,116.4
157.0583,62.9
157.0652,123.4
157.0971,36.2
157.1135,470.9
157.1197,58.9
157.1235,917
157.142,117.7
157.2101,332.6
157.2167,83.8
157.223,343.2
157.2946,365.3
157.3366,22.4
157.3661,580.9
157.4078,57.9
157.447,657.3
157.4804,181.4
157.4884,174.4
157.5594,77.5
157.57,113.1
157.6923,582.3
157.7735,148.8
157.7818,111
157.7912,74.6
157.8465,606.9
157.8478,632.9
157.8975,172.4
157.9699,120.5
157.9938,47.3
158.0202,45.8
158.0271,10135.4
158.0362,520
158.086,351.8
158.0909,51.5
158.0936,672.9
158.1709,502.1
158.1884,128.8
158.226,428.7
158.239,218.3
158.2535,302
158.4637,24.6
158.4697,430
158.4932,51.5
158.4962,75.7
158.505,191.4
158.5453,321.2
158.6044,72.7
158.7891,140.4
158.7986,615.8
158.8273,163.8
158.8321,56.9
158.836,294.7
158.8522,167.9
158.8583,93.6
158.9024,129.7
158.9335,65.7
158.937,113.1
158.9641,4774.3
158.971,158.2
158.9826,199.7
158.9965,4967.5
159.0112,47.7
159.0253,85.1
159.0304,146.5
159.0331,111.9
159.0394,122.6
159.0639,47.8
159.0763,534.6
159.0916,378.6
159.1323,306.8
159.149,156.7
159.2024,136.4
159.2573,190
159.2601,507.4
159.3112,91.6
159.3692,110.2
159.4181,330.9
159.4965,100.1
159.5208,572.3
159.5368,211.5
159.5975,58.8
159.6002,286.4
159.6332,213
159.7345,79.5
159.7459,61.4
159.7956,19
159.8044,464.9
159.8103,708.5
159.8601,66.4
159.8968,254.3
159.9319,88.7
159.935,446.6
159.9407,735.3
160.0154,94.3
160.0228,60.2
160.0345,15826.6
160.0461,69.7
160.0572,49.4
160.0605,130461.9
160.0751,81
160.1197,381.7
160.1269,823.3
160.1504,140.6
160.1692,521.4
160.2638,340.6
160.3006,676.6
160.3065,22.7
160.312,81.5
160.4114,61.8
160.4513,80.8
160.5303,182.1
160.5507,377.8
160.6322,468.5
160.6554,23.4
160.7129,327.6
160.7514,158.7
160.7906,19.6
160.8059,152.5
160.8705,453.2
160.9248,166.3
160.9604,247.2
160.9697,81.1
160.9833,213.7
160.9904,25.6
161.0115,46.3
161.0639,5467.5
161.0692,608.9
161.096,106.4
161.1157,171
161.1324,89.4
161.1523,113.5
161.2763,222.7
161.3872,379.4
161.4279,606.4
161.4541,520.8
161.4611,59.4
161.5709,207.7
161.575,673.9
161.6146,60.1
161.8305,105.9
162.0146,375.5
162.0502,10736.1
162.0683,65.1
162.0946,113.7
162.1244,861.5
162.1372,345.7
162.2476,342.3
162.2582,80.1
162.2617,79
162.2879,463.5
162.3044,482.2
162.391,109.1
162.4446,126.1
162.4973,181.1
162.5094,669.5
162.5231,320.1
162.5571,57
162.567,139.6
162.6216,66.1
162.6362,194.5
162.666,83.2
162.6806,95.4
162.7502,97.7
162.8168,301
162.8379,136.5
162.85,96.9
162.8562,373.6
162.8777,588.5
162.8933,257.8
162.8965,162.5
162.9556,1281.7
162.9814,60.5
163.0093,51.9
163.0155,1751.6
163.0304,211.5
163.0342,482.9
163.0482,118.4
163.0934,19.5
163.1367,64.8
163.1784,715.6
163.2134,55.1
163.3222,600.4
163.3278,198.8
163.346,70.8
163.4608,70.4
163.4877,129.2
163.5351,871.3
163.5771,203.5
163.5951,596.4
163.6413,70.3
163.6433,377.3
163.6452,128.7
163.6522,124.7
163.6572,112.6
163.6604,156
163.8264,631.4
163.8942,43.4
163.9134,165.1
163.9597,57.9
163.9637,17.2
163.9711,146.9
164.0062,180.3
164.0105,313.6
164.0118,614.7
164.0166,64.2
164.0231,115.1
164.0295,9131
164.0594,78.9
164.1192,673.1
164.1652,634.4
164.1675,93.9
164.248,328.8
164.2543,151.2
164.2729,87.1
164.3145,465.8
164.3235,18
164.3596,113.4
164.3772,241.3
164.4425,117.9
164.468,193.3
164.4759,76.1
164.5082,20
164.5529,59
164.5664,128.1
164.5684,46.9
164.613,27.7
164.6142,42.5
164.6147,43.3
164.6165,329.8
164.6465,523.6
164.6697,300.5
164.6904,57.7
164.7435,80.8
164.8163,385.2
164.9205,2520.8
164.93,9212.6
164.9385,17.2
164.9518,328.6
164.9637,60.7
164.9751,688.4
164.9844,26.4
164.9924,413.3
165.0118,124
165.0137,759.2
165.031,79.9
165.0339,78.1
165.0627,142.2
165.0911,133.4
165.1176,482
165.1992,110.8
165.3232,223.8
165.3274,199.4
165.4285,56.5
165.5673,131.5
165.5809,395.7
165.5895,395.4
165.6253,750.1
165.6375,121.6
165.6748,164.8
165.8119,303.8
165.8704,250.6
165.9033,225.1
165.9571,97.2
165.9668,404.4
165.9788,1606.7
165.9827,519.5
165.9877,2569.1
165.9948,25.1
166.0524,628.5
166.0711,160.7
166.169,456.8
166.2021,68.4
166.2082,159.7
166.3374,76.7
166.3492,595.3
166.369,121.6
166.418,818.7
166.4885,489
166.587,51.7
166.7028,113.8
166.7322,272.6
166.7373,604.4
166.7591,452.7
166.845,111.6
166.8842,316.7
166.9055,71
166.9144,360.6
166.9205,682.6
166.9311,137.5
166.9508,10289.5
167.0093,75.8
167.0218,13070.7
167.0476,106.4
167.0789,106
167.2102,212.2
167.2961,71.1
167.3148,135.6
167.371,341
167.4425,136.5
167.54,275.3
167.5695,45.5
167.5729,185.8
167.6185,180.5
167.7063,51.7
167.8064,306
167.8111,127.8
167.813,274.3
167.8416,53.1
167.9051,389
167.9247,392.7
167.942,71.9
167.9944,2473.2
168.0059,1291.8
168.0733,90.1
168.1556,16.9
168.2226,20.2
168.2479,21.2
168.3097,188.4
168.3284,55.7
168.359,59.7
168.4098,64
168.4368,205.3
168.5105,53.5
168.5775,130.5
168.5955,319.1
168.6183,204.7
168.6456,19
168.719,306.4
168.7372,59.8
168.8898,59
168.9277,57.7
168.9447,246.6
168.9653,78.5
168.9708,175.4
168.9728,161.4
169.0251,40.8
169.0584,90683.2
169.0651,373.2
169.0946,1887.9
169.0972,42.2
169.116,258.9
169.1244,180.1
169.2478,19.4
169.3043,143.4
169.3269,150.6
169.3581,348.6
169.3613,188.7
169.4129,147.5
169.4152,117.7
169.4522,269.3
169.4591,588.2
169.4996,40.1
169.5137,66
169.6126,63.3
169.6205,497.8
169.6605,114.1
169.6693,61.6
169.6856,19.7
169.6914,370.1
169.7023,45.2
169.795,49.9
169.8565,158.8
169.8618,589.4
169.9092,273.5
169.961,69.5
170.0121,71.4
170.033,1099.6
170.0551,22
170.0584,407
170.0617,2378.6
170.0925,34134.6
170.1845,198
170.2429,49.8
170.2453,300.8
170.2665,59.5
170.312,722
170.3762,389.1
170.4294,50
170.5237,19.5
170.6918,197.8
170.7682,249
170.8545,3570.8
170.9196,93.8
170.929,116.7
170.9666,292.8
171.0167,2143.3
171.0279,281.5
171.0529,791.4
171.074,726.4
171.0805,156.3
171.0956,278.5
171.1099,39.7
171.1107,38.7
171.204,62.2
171.2613,694.3
171.2899,66.8
171.3386,61.2
171.3815,149.9
171.4662,536.1
171.4729,442.2
171.4904,597.7
171.5322,18.2
171.5643,115.3
171.5706,159.6
171.6264,567.4
171.686,45.5
171.7215,140.3
171.7306,82.3
171.7825,340.6
171.8046,582
171.8076,332.9
171.8267,150.9
171.8522,291.8
172.0131,18.3
172.0282,1361.7
172.185,72.5
172.2195,224.4
172.227,246.2
172.2328,123.5
172.2408,92.8
172.2508,684.8
172.3211,342.1
172.3478,125.7
172.3568,20.5
172.6846,155
172.8513,962.4
172.8542,86.3
172.8974,172.9
172.9523,42.7
173.0021,394.8
173.0268,559.2
173.0299,1356.1
173.0542,537
173.0868,568
173.1019,741.7
173.1058,86.6
173.2448,16.7
173.2791,63.5
173.3105,581.1
173.3856,697.2
173.4252,158.9
173.4536,119.5
173.5114,150.8
173.5687,130.1
173.6239,310.7
173.6314,683.4
173.6338,349
173.7167,117.2
173.7251,145.5
173.7475,115.5
173.7616,687.1
173.8372,94.6
173.8543,294.6
173.8628,381.3
174.0081,294.5
174.0121,256.8
174.0199,65.1
174.0303,26.1
174.0707,112.4
174.0956,413.3
174.1054,92.2
174.1488,493.4
174.1677,158.2
174.1813,645.7
174.1899,359.1
174.3508,376.7
174.3732,82.1
174.4064,70
174.4125,83.5
174.4673,498.7
174.5506,243.7
174.5678,62
174.5795,66.1
174.6104,104.7
174.6235,130.3
174.6846,594
174.7102,19.5
174.7473,210.6
174.7557,563.6
174.8294,349.8
174.877,65.8
174.886,387.1
174.9381,1379.3
174.9603,808.4
174.9806,311.4
174.9889,644
175.0342,4410.1
175.0392,70.1
175.0455,4240.3
175.0577,1061.4
175.0963,115.8
175.119,103735.9
175.1347,304.2
175.1501,148.1
175.2049,110.8
175.2369,64.6
175.3495,63.4
175.3607,772
175.3694,57.5
175.4215,185.7
175.5904,391.3
175.6361,519.6
175.6492,96.7
175.6769,620.8
175.7312,18.1
175.7882,631.7
175.8121,84.3
175.8279,466.7
175.9747,630.6
175.9961,126.4
176.0086,7639.1
176.0296,493.5
176.0399,75.9
176.0659,16028.5
176.0799,545.9
176.1031,1721.6
176.1224,2007.8
176.2377,53.5
176.2771,72.4
176.3238,306.9
176.349,122.9
176.3633,120.5
176.3817,785.6
176.3889,66.2
176.4247,45.8
176.4631,401.8
176.5322,84.2
176.5733,127.5
176.5752,372.9
176.6424,212.6
176.6501,148.3
176.6609,128
176.6964,54.3
176.7751,153.6
176.7836,68.5
176.8482,45.7
176.8697,57.5
176.9686,85.9
176.9761,268.3
176.9944,596.7
177.0248,1250.2
177.0324,20.6
177.061,3653
177.0871,461.5
177.1231,133.6
177.1508,47
177.1561,127
177.1901,159.5
177.2442,62.5
177.343,628.9
177.3937,86.3
177.3974,58
177.4704,405.6
177.5374,346
177.6731,453
177.7491,496.7
177.8407,51.3
177.9489,81.6
177.9817,114.7
177.9931,86
178.001,318.5
178.0088,12859.2
178.0242,6523.5
178.0446,161.7
178.0588,4031.2
178.0828,113.4
178.1218,276.1
178.1258,59.2
178.1423,204
178.2596,188.7
178.3598,28.3
178.3627,61.9
178.4104,650
178.4306,974
178.4329,229.1
178.5682,452.7
178.5831,53.8
178.5962,173
178.6834,68.1
178.7587,61.3
178.7739,109
178.7767,113.1
178.8479,59.2
178.9317,686.6
178.9867,516.8
179.0107,375.3
179.0133,21.4
179.0494,63.1
179.1416,219.5
179.1811,195
179.2037,109.8
179.249,535.8
179.2785,186
179.3036,72.1
179.5061,48.6
179.5581,141.9
179.5668,348.3
179.5815,46.9
179.699,608.2
179.7002,660.7
179.7098,732.1
179.7164,73.2
179.7443,244.3
179.795,21.1
179.8635,330.8
180.0035,7835.4
180.0243,188.7
180.0896,100.9
180.1376,358.2
180.2266,173.2
180.2354,408.1
180.2444,302.3
180.2678,921.6
180.2746,267.4
180.2878,79.2
180.366,331.7
180.4269,157.7
180.461,284
180.4751,834.5
180.5331,67
180.5928,51.9
180.6064,783.6
180.6238,51.4
180.7045,193.3
180.713,528.4
180.7913,17.9
180.8373,356.6
180.8408,224.9
180.8786,70.4
180.8945,2138
180.9041,5623.4
180.9575,805.1
180.9665,511
180.9772,290.4
180.9902,165
181.032,323
181.0649,6061.1
181.0775,394.9
181.1458,284.5
181.1486,72.9
181.3122,288.6
181.3512,60.9
181.3865,47.5
181.4302,228
181.5769,131.8
181.6308,195
181.6655,647.5
181.7325,146.6
181.7498,291.2
181.8029,302
181.8095,254.2
182.0425,40125.3
182.0507,866.5
182.0791,487.9
182.0816,698.5
182.0915,795.3
182.1736,258.1
182.2523,141.6
182.3998,21.7
182.4577,781.5
182.4727,52.7
182.5312,389
182.5417,528.1
182.5695,111.2
182.6165,23.3
182.8233,79.3
182.8428,371.9
182.882,303.6
182.8862,385.8
182.9025,67.6
183.0443,1280
183.0895,289.2
183.0966,106.3
183.098,77.2
183.1696,65.3
183.1815,694.8
183.1852,138.3
183.1967,48.2
183.2044,144.4
183.2566,670.8
183.2746,18.1
183.2861,71.3
183.2998,749
183.4292,330.9
183.4395,542.5
183.5766,759
183.594,351.6
183.6484,103.4
183.6968,59.1
183.7307,178.4
183.7611,134.6
183.908,76.9
183.9348,49.4
183.9476,396.5
183.9649,54.6
184.0168,496.4
184.0375,85.9
184.0399,79.4
184.0628,48.6
184.066,40.1
184.0734,2450348
184.0831,322.3
184.1095,370.2
184.124,69.9
184.1697,21.4
184.1821,616.8
184.274,43.5
184.3884,183.9
184.427,159.8
184.4954,65
184.5043,664.2
184.5078,122.9
184.5688,197.8
184.599,251.1
184.6056,878.7
184.6735,123.4
184.7126,95.5
184.744,285.7
184.8133,315.8
184.8376,83.3
184.8773,105.9
184.9071,61.7
184.9097,78.8
185.003,111.4
185.0174,17.8
185.0324,118557.1
185.0376,116.4
185.0699,3614.1
185.0767,111476.5
185.0798,315.5
185.0888,20.1
185.1134,95.5
185.2876,199.4
185.3393,18.5
185.3725,62.4
185.3922,392.3
185.459,85.2
185.6666,396
185.7836,316
185.8274,18
185.8365,139
185.9075,197.9
185.9538,562.9
185.9602,472.5
185.9931,323.5
186.0358,2194.5
186.0463,337.1
186.0776,13456.5
186.1312,224
186.1445,329.6
186.1512,106.1
186.249,742.7
186.2735,165.4
186.2967,619.2
186.3065,132.7
186.3081,48.4
186.3336,273.9
186.3793,110.4
186.4446,83.2
186.4927,67
186.5761,104.8
186.6422,282.4
186.6477,66.3
186.734,56.2
186.7897,171.3
186.8007,126.3
186.8864,298.5
186.9125,1004.1
186.948,58.2
187.0305,4269.7
187.0578,1624.1
187.0645,24.2
187.0715,1672.6
187.108,66.2
187.1993,267
187.237,297.9
187.3359,347.6
187.37,132.8
187.4233,111.7
187.4427,394.2
187.4771,168.8
187.503,157.8
187.5846,89.4
187.642,209.9
187.7247,65.9
187.7357,145.5
187.7562,23.1
187.7988,103.1
187.9292,152.6
187.9462,103.8
187.9666,236.1
187.9773,76
188.0793,151.6
188.1486,79
188.1548,254.2
188.2234,632.7
188.2262,54.4
188.2398,106.7
188.2723,97.5
188.3722,232.5
188.3867,64.1
188.3985,736.1
188.6086,60.4
188.6293,104.3
188.7192,335
188.9191,384.8
189.0244,742.1
189.0471,110.8
189.0515,49
189.0612,2572.9
189.0871,8655
189.1056,121.9
189.1411,104.5
189.1856,128.7
189.3034,66.1
189.3532,386.2
189.4115,43.9
189.4324,64.4
189.4448,544.2
189.4524,180.9
189.4553,89.7
189.5538,133.9
189.5666,43.3
189.6158,346.3
189.634,47.2
189.6837,134.2
189.8152,318.7
189.8629,422.5
189.8931,344.6
189.938,59.1
189.9455,642
189.9607,50.3
189.9969,164.4
190.0686,225.8
190.1038,342.7
190.2633,82.2
190.3016,337.3
190.3416,275.3
190.3549,98.9
190.3574,300.5
190.3782,525.6
190.4363,825.9
190.5279,51.4
190.5965,337.3
190.609,122.9
190.6987,112.6
190.7964,643.3
190.8016,526.4
190.8428,554.7
190.8578,111.1
190.862,150.4
190.9446,67
190.9503,730.4
190.9689,130.5
191.0018,108.6
191.0082,3502
191.0209,75
191.0404,106302.6
191.0769,12281.1
191.1485,179.7
191.3982,17.4
191.5297,354.1
191.5771,509.4
191.6207,327.4
191.682,82.9
191.7006,80.4
191.7386,612.8
191.774,53.9
191.7827,711.1
191.8788,82.1
191.9196,247.1
191.9688,170.3
191.9824,376.8
192.0399,9293.6
192.0439,2996.8
192.0614,157.3
192.169,191.3
192.1838,142.7
192.2702,120.2
192.2821,367.8
192.3392,77.1
192.343,330.2
192.3506,50.3
192.4684,25.4
192.604,48
192.6063,608.9
192.6314,335.4
192.6524,60.5
192.6931,152.5
192.75,518
192.7539,319.1
192.7851,228.1
192.7893,167.6
192.8301,89.5
192.8548,68.5
192.881,642.6
192.9954,130.7
192.9986,2211.3
193.0351,1987
193.1796,77.7
193.2495,180.8
193.2537,364.3
193.2702,607
193.2993,73.6
193.4318,358
193.5652,236.5
193.6499,112.2
193.7528,133.8
193.8347,62.2
193.8485,93.1
193.8859,68.6
193.9374,69.8
193.998,1590.4
194.005,1309.1
194.0218,386.5
194.029,333.5
194.0326,2748.8
194.0376,353.7
194.0431,337.7
194.0478,41.4
194.145,413.7
194.1544,73.8
194.1727,49.6
194.2026,116.6
194.3231,321.7
194.3275,18.9
194.3704,25.1
194.3837,238.3
194.4237,715.2
194.5031,648.8
194.5626,224
194.6514,153.1
194.7003,108.6
194.7901,114.1
194.7953,42.6
194.8235,195.8
195.0326,76.3
195.1625,857.1
195.1895,150.3
195.1928,100.6
195.2059,47
195.2432,89.8
195.2574,996.1
195.282,359.4
195.3157,16.5
195.7347,606.9
195.7471,680.2
195.8106,65.8
195.9271,228
195.9776,342.2
195.9858,690.9
196.0258,355.1
196.057,18
196.0793,88.6
196.1698,323.9
196.1837,361
196.2207,57.4
196.3093,48.6
196.3313,180.8
196.3892,109.9
196.4432,164
196.5255,312
196.5603,47.2
196.5885,129.5
196.6618,88.8
196.7529,428.8
196.8304,600.9
196.8576,63.6
196.8653,5356.4
196.8782,1614.7
197.0329,173.3
197.0896,624
197.1013,303.3
197.2243,90.8
197.2301,43.5
197.2633,210.8
197.3244,50.9
197.3632,345
197.4033,55.1
197.4225,99.5
197.4486,141.9
197.8141,569.7
197.8788,17.5
197.893,293.2
197.9074,261.2
197.9589,195.5
197.9649,476.9
198.0081,107
198.085,10174.6
198.0894,834.5
198.1259,354
198.1797,111.7
198.1854,9006.4
198.1912,59.7
198.3078,626.9
198.3267,44.1
198.3419,762.2
198.3449,366.8
198.405,562.8
198.5341,350.6
198.5927,98
198.7083,80.4
198.7297,63.3
198.7424,21
198.745,122.8
198.7698,554.6
198.7759,759.4
198.7874,78.4
198.8623,4774.1
198.9008,715.3
198.979,200.1
199.0161,23.2
199.0372,913.9
199.0396,61.5
199.069,1620.3
199.0757,2304.3
199.08,46.6
199.1328,18.4
199.1672,536.6
199.1889,189.4
199.2566,112.4
199.2984,114.5
199.3545,929.9
199.4254,457.2
199.5012,55.1
199.5727,87.4
199.6621,687.3
199.6999,791.7
199.7375,52.3
199.8306,347.4
199.8353,85.2
199.8507,63.8
199.8852,90.8
199.9205,50
199.9238,74.5
199.9462,146.4
199.9647,662.9
199.9729,327.2
199.9908,31048.7
200.0088,188.7
200.0408,8967.9
200.0643,83.6
200.0812,423.1
200.1058,205.4
200.1233,94.6
200.1326,9498.1
200.139,590
200.1808,362.1
200.1891,432.5
200.2115,56.7
200.2141,309.3
200.2208,60.5
200.2846,63
200.3209,234.5
200.4325,269.2
200.4517,816.4
200.6022,55.1
200.6188,564.9
200.6261,82.9
200.635,18.2
200.6484,133.7
200.703,140.5
200.7882,298.6
200.8594,968.7
200.8692,95.3
200.9094,50.6
200.9454,395.5
200.9552,19.1
200.9741,173.3
200.9915,213.3
201.0129,746.8
201.0214,430.2
201.0258,592.4
201.0372,118.3
201.0549,534.8
201.0636,73.3
201.0872,99.9
201.1022,123.7
201.1818,58.4
201.2346,21.3
201.3204,587.1
201.3902,22.5
201.4074,103.4
201.5313,311.1
201.5474,81
201.5704,50
201.5859,18.8
201.6094,253.6
201.6162,204.2
201.9527,19
202.029,93.7
202.0348,80.2
202.158,96.3
202.1672,63.5
202.2348,62
202.2759,403.3
202.3245,48.9
202.3295,144
202.4191,253.7
202.4306,148.8
202.5013,18118.4
202.5056,20.2
202.5609,79.6
202.5849,215.6
202.5922,51.6
202.7256,556.1
202.7709,120.7
202.7901,24.8
202.802,150.7
202.8176,78.4
202.958,304.8
203.0318,3426.2
203.0528,939042.6
203.0694,62.4
203.0768,14863.5
203.146,23.4
203.1882,87.2
203.2097,302.8
203.2943,340.3
203.297,74.9
203.3357,102.2
203.3368,101.6
203.354,315.2
203.446,157.1
203.6143,61.7
203.69,156
203.7684,72.3
203.882,313.5
203.9068,321.5
203.9368,60.9
203.9863,648.6
204.0013,81.2
204.0154,18.4
204.0245,63398.7
204.0561,46432.3
204.0868,149.2
204.1057,109.4
204.1856,61.8
204.1956,718.7
204.3199,183.7
204.3551,17.9
204.4818,246.2
204.4954,74.5
204.516,118.1
204.6425,230.7
204.6721,381.1
204.7777,738.3
204.7934,333.3
204.827,19.3
204.8482,135.3
204.9078,81.2
204.9484,101
205.0279,768.1
205.0571,5318.9
205.0838,58.4
205.097,592.8
205.1273,66.3
205.1492,744.1
205.1619,322.2
205.2473,664.1
205.2708,602.9
205.2857,200.7
205.32,331.5
205.3239,838.5
205.3776,73.9
205.5206,108.5
205.5652,522.5
205.5737,18.1
205.6722,44.3
205.8338,112.4
205.8964,655.5
205.9241,134.9
206.0418,539.1
206.0552,991
206.0653,96.1
206.1771,131.5
206.2511,68
206.2825,60.4
206.2962,94.5
206.3528,546.6
206.3579,281.9
206.3752,759.4
206.3859,325.9
206.4353,59.5
206.5214,126.8
206.5473,438.6
206.582,228.7
206.6335,386.1
206.6665,100.8
206.7481,48.1
206.7586,222.5
206.8941,15437.2
206.9645,246.9
206.9823,1488.6
207.0144,78731.7
207.0311,75.6
207.0442,1972
207.0507,7810.6
207.0681,178.9
207.1027,18.2
207.1719,611.9
207.2003,650.7
207.2232,105.8
207.2633,141.5
207.3887,107.8
207.4858,204.8
207.6893,19.3
207.7518,651
207.8533,95.4
207.9182,634.7
207.9284,288.9
207.9358,65.3
208.0139,1145
208.0178,1269.4
208.0233,743.2
208.0956,114.5
208.1001,106.8
208.1135,156.5
208.1183,85.1
208.2409,179
208.3241,730.4
208.3523,19.7
208.4462,117.6
208.4523,656.2
208.4601,65.9
208.5145,45.2
208.5352,598.6
208.5755,587.2
208.6742,246.4
208.6937,20.2
208.8911,6919
208.977,128.4
208.9899,413.7
209.0125,1993.4
209.0381,60
209.1007,63.7
209.1226,502.9
209.1258,575.4
209.1512,132.1
209.1697,663.5
209.1819,334.7
209.2533,54.4
209.2635,549.4
209.2944,537
209.3324,101.3
209.3666,116.3
209.3818,78.8
209.3916,145.3
209.4622,238.5
209.4827,90.9
209.5173,142.3
209.6184,54.3
209.6271,210.9
210.2041,22.2
210.7617,158
210.7906,176.5
210.9095,248.6
210.9605,313
210.989,46.2
211.0026,169.7
211.0203,361.3
211.0567,719.2
211.0692,3146.7
211.163,92.6
211.1658,224.6
211.1716,352.9
211.1743,1767.3
211.1809,5057
211.1825,6048.9
211.1884,28833.4
211.1922,21775.5
211.1961,17658.6
211.1991,17492.5
211.2163,85.3
211.2349,77.4
211.2447,19.2
211.4253,52.7
211.4648,80.9
211.5329,114
211.5391,265.6
211.5555,333.5
211.5684,431.7
211.591,112.9
211.6241,82.1
211.6413,19.1
211.7234,86.4
211.7578,543.1
211.7839,54.2
211.8478,21.1
211.8732,1327.8
211.8847,686.4
211.9399,59.9
211.9915,838
212.0121,192.5
212.0223,28.9
212.0706,272.3
212.0742,104.4
212.0847,62.3
212.0916,180.8
212.1183,360.3
212.136,23.4
212.2043,128
212.2386,531.4
212.2614,158.6
212.3823,411.4
212.4628,205.6
212.5057,198.9
212.5447,560.7
212.5561,279.1
212.6309,81.9
212.6779,360.7
212.7172,337.6
212.766,757.7
212.7851,330
212.7911,48.7
212.826,110
212.8392,2151.9
212.8443,25.5
212.8907,606.7
212.9636,585.9
212.9813,46
213.0083,122.7
213.0548,2074.2
213.0639,279.2
213.0828,58
213.19,406.2
213.2024,426.6
213.2199,724.4
213.307,169.7
213.3169,449.3
213.3835,175.6
213.4388,24.8
213.5003,108
213.6446,307.1
213.6611,164.1
213.6895,173.4
213.7166,306.7
213.7754,730.2
213.7918,643.3
213.9064,799.2
213.958,578.9
213.9625,23
213.9848,257.9
214.0325,287.7
214.059,16333.5
214.0899,1138.4
214.1659,159.5
214.1757,106.6
214.3515,135.4
214.5099,105.7
214.5283,362.8
214.5316,685.9
214.6119,68.8
214.6559,78.4
214.7157,80.1
214.8362,1929.9
214.8682,118
214.8924,48.6
214.9179,85
214.9289,267.8
215.0082,384.2
215.0189,29.7
215.0934,96.1
215.103,211.6
215.1815,101.3
215.2422,84.2
215.2534,20.4
215.2841,63
215.287,19.1
215.2903,295.5
215.3474,176.2
215.361,80.7
215.3917,82.2
215.4054,307.7
215.4685,103.9
215.5444,65
215.6038,623
215.6941,68.7
215.7939,67.1
215.8005,364.8
215.8101,220.4
215.8314,130
215.8342,453.4
215.9796,47.4
216.0147,8127
216.018,1105
216.0382,493.8
216.2945,47.2
216.3824,699.4
216.4015,523.7
216.4313,72.1
216.442,119.2
216.4857,135.2
216.6011,234.4
216.6585,319.5
216.6827,55.9
216.7229,60.6
216.9229,42179
216.9509,18.4
217.0413,598.5
217.0566,54.5
217.0824,61.9
217.1981,297.2
217.2688,745.6
217.4106,63.1
217.4875,79.4
217.5889,186.3
217.6207,177.9
217.7482,367.1
217.8393,90.6
217.8637,61.8
217.9035,343.4
217.9078,372.2
217.9682,242.3
218.013,489.5
218.0957,249.9
218.1394,307.8
218.1519,92.6
218.1937,86.4
218.3106,61.1
218.3161,630.9
218.3925,150.2
218.4627,197.2
218.5025,609.1
218.5926,83.5
218.6965,253.6
218.7258,163.3
218.7589,374.6
218.8248,212.6
218.9199,11131.9
218.9433,770
218.9776,498.1
218.9831,62.4
219.0267,1166326.6
219.0302,2872.2
219.0339,1116.2
219.0379,187.2
219.0475,21.8
219.0569,343
219.0829,4588.2
219.0898,743.2
219.1075,381.1
219.1182,60.5
219.21,17.4
219.2362,238.8
219.2678,726.4
219.2687,716.3
219.3455,78.8
219.4314,342.4
219.4698,42.5
219.4895,21.4
219.6178,607.6
219.6241,235.9
219.6701,91.4
219.7311,19
219.7386,567.5
219.7581,120.2
219.816,18.5
219.9087,22.2
219.9374,392.1
219.9495,234.4
219.9674,57.8
219.9984,1272
220.03,56829.4
220.0372,1170.8
220.0671,6411.3
220.1505,107.4
220.1675,401.8
220.1874,127.2
220.2225,23.5
220.2734,59
220.2961,167.9
220.305,22.4
220.3246,106.8
220.3257,107
220.3271,81
220.3918,66.7
220.4109,46
220.463,470.7
220.4728,142.2
220.6391,71.4
220.732,22.2
220.7465,85.7
220.8866,696.2
220.9012,164.8
220.9099,346.5
220.9222,21.8
220.9718,798.2
220.9769,183.8
221.018,740.9
221.0248,69268.7
221.031,7761
221.051,1928.4
221.0847,132.1
221.0875,509.6
221.0972,155.7
221.1549,49.1
221.1709,57.6
221.2387,19.4
221.3576,407.6
221.3668,115.4
221.4059,216
221.5058,53.1
221.5162,20.8
221.5533,182
221.5635,50.6
221.5938,629.5
221.6017,214.8
221.7469,584.7
221.7707,21.6
221.8741,241
221.9085,94.4
221.9278,146.5
221.9564,144.5
222.1468,206.4
222.2045,126.3
222.2532,174.9
222.3987,105.2
222.446,337.5
222.4732,703.7
222.5458,546.8
222.5839,261.7
222.5893,178.9
222.6396,78.8
222.6751,117.7
222.7061,806.4
222.7119,675.9
222.7785,100.4
222.7867,45.9
222.8017,648.4
222.8595,21.2
222.868,15386.7
222.8792,525.8
222.8914,85.9
222.9009,160.6
222.9707,23.7
222.9785,496.6
222.9883,9868.1
223.0251,477.9
223.0366,763.2
223.0397,73.4
223.0705,81.7
223.147,239.1
223.2697,88.6
223.3455,75.4
223.3529,232.1
223.3605,245.2
223.5236,21.3
223.6306,115.2
223.715,99.9
223.76,147.7
223.8106,73.2
223.8285,218.1
223.8395,351.3
223.8474,526.7
223.9079,604.8
223.9532,25.1
224.0296,1799
224.0554,62.7
224.0816,239.8
224.0865,75.2
224.157,62.2
224.3086,20.2
224.3267,360.6
224.4239,125
224.5078,532.4
224.5533,45.6
224.6474,222.9
224.6531,358.3
224.7536,48.8
224.8279,124.4
224.865,8783.1
224.92,67.5
224.9298,929.8
224.9929,205.7
225.0262,711.6
225.0549,30570.6
225.0663,46.9
225.085,731
225.303,18.8
225.45,250.2
225.4956,17.8
225.6059,137.2
225.7186,102.8
225.8956,426.3
225.8979,22
225.9504,75.1
226.0022,31
226.0063,1293.4
226.0243,5998.8
226.0452,2960.1
226.0533,107.4
226.0583,338.6
226.1051,454.4
226.1811,22.1
226.2034,165.2
226.3745,78
226.4758,388.7
226.5487,53.7
226.6576,130.9
226.675,260.4
226.8622,484.5
226.9172,105.5
226.9337,360.5
226.9394,545.6
226.9517,17371.3
227.0042,21.5
227.0342,1843.3
227.0432,320.4
227.0793,1429.2
227.0865,134.5
227.2558,69.2
227.2568,81.5
227.2586,53.9
227.3131,18.4
227.3779,287.9
227.4729,220.3
227.6195,25.4
227.9647,89.1
228.0005,1056.9
228.0428,21.3
228.138,87.8
228.1899,19.3
228.194,68.1
228.2166,523.6
228.2432,93.7
228.3058,211.8
228.4188,382.4
228.4682,390.9
228.4734,474.6
228.5102,128.3
228.5224,249.2
228.5321,201.3
228.5436,83.5
228.5612,47.7
228.6017,251.1
228.7206,386.1
228.7723,404.7
228.8332,146.8
228.8615,49.9
228.8826,635.6
228.9402,328
228.957,50.4
228.9697,61.7
229.1183,23.5
229.1406,70.8
229.1627,453.5
229.2355,111.7
229.3662,21.9
229.5315,195.8
229.5392,59.6
229.5877,160
229.5931,585.5
229.6041,22.2
229.6804,18.7
229.73,134
229.7312,172.5
229.7327,111.3
229.7431,175.9
229.8726,365.3
229.886,26.1
229.8931,117.1
229.957,130.6
230.0121,608.2
230.0333,194.4
230.1139,36.9
230.1578,607
230.1929,390.2
230.2311,85.4
230.2549,95.4
230.2698,149.9
230.2944,107.3
230.325,101.6
230.3258,102.9
230.3877,208.6
230.3973,67.8
230.478,64.6
230.571,226.1
230.5774,591
230.6011,78.6
230.6551,155
230.7422,110
230.7878,28.7
230.9224,115.4
230.9901,29.2
231.0559,688.2
231.0841,677.6
231.1531,157.5
231.1618,412.8
231.2881,86.5
231.308,174.8
231.3534,23.6
231.3612,238.6
231.383,49.6
231.3908,93.9
231.4928,325
231.6324,392.3
231.6598,113.1
231.693,107.3
231.7083,279.2
231.9629,18.4
231.9736,127.5
231.9953,175.7
232.0111,175.2
232.0324,63.5
232.0599,48
232.0831,21
232.1119,24.1
232.1364,228.2
232.1793,177.7
232.2474,181
232.4405,222.4
232.4649,107.6
232.4909,836
232.5602,143.8
232.7059,182.2
232.8234,67.5
232.8373,641.2
232.8968,33216.4
232.9053,178.6
232.9448,65.4
232.9857,3995.2
233.0511,14074
233.0639,43.1
233.081,541.3
233.2221,349.1
233.3073,291
233.4,619
233.4463,138.3
233.4956,282.7
233.5125,22.9
233.7391,71
233.8407,96.8
233.8496,17.2
233.9266,118.7
233.9928,350.3
234.0545,273.9
234.0634,25.6
234.1653,145.2
234.2962,72.8
234.6313,26.8
234.6947,622.8
234.7995,23.6
234.8393,22.2
234.8536,739.2
234.8589,172.4
234.8937,9144.9
234.9816,2430.4
235.0302,660.7
235.0519,56.5
235.057,4442.3
235.0668,3760.6
235.0764,240.5
235.0927,7524.5
235.1031,212.2
235.1188,301.6
235.1264,105.4
235.1694,61.5
235.2279,356.8
235.2428,397.9
235.3302,96.7
235.4416,58.2
235.5258,150.4
235.5719,209
235.6182,60.1
235.7089,156.9
235.9837,585.9
236.014,166.8
236.0283,90.3
236.041,2414.5
236.0503,435.4
236.0718,37888.9
236.1133,55.3
236.1429,93.1
236.238,19.3
236.321,288.1
236.3454,198.8
236.3894,249.2
236.439,47.2
236.4437,223.5
236.5541,153.9
236.557,56.4
236.5831,233.8
236.6814,214.8
236.7066,326.9
236.715,506
236.748,133.8
236.8426,245.9
236.8813,82.9
236.8931,803.5
236.9711,77.2
237.0019,100.7
237.0525,90.2
237.0752,1068.4
237.0963,57.1
237.132,119.7
237.1833,442
237.2085,425
237.3156,394.4
237.4348,21.8
237.6013,798.3
237.6114,382
237.6236,774.1
237.6501,104
237.6547,334.1
237.6817,74.6
237.8836,96.1
237.9073,61.3
237.9637,142.8
237.9757,166.9
238.0676,307.6
238.0819,202.9
238.1023,73.3
238.1963,19.3
238.2824,81.8
238.4538,144.2
238.6094,135.8
238.6894,575.2
238.7305,385.6
238.7611,330.8
238.842,4963.6
238.8533,426.1
238.8912,366.2
238.9843,358
239.0094,953.4
239.0492,400.2
239.0639,1557.9
239.0681,205
239.1118,111.8
239.1272,87.8
239.2177,433.1
239.2998,195.4
239.3088,281.6
239.392,90.3
239.5659,113.5
239.5957,32.4
239.6477,95
239.7178,51.8
239.7712,125.9
240.0035,896.7
240.0127,426.8
240.0309,75.5
240.053,23.9
240.0578,113.6
240.0994,926.5
240.1105,177
240.1175,355.4
240.1222,345.5
240.2056,612.8
240.2772,50.1
240.3728,19.2
240.4387,327.9
240.5362,183.3
240.5466,129.7
240.56,126.3
240.6674,24.3
240.7446,553.9
240.8118,669.7
240.8387,1702.4
240.9255,49.1
241.0006,41.6
241.0272,354.1
241.0487,77.9
241.0627,159.7
241.1684,690.4
241.2233,121.7
241.254,256.4
241.2638,182.2
241.2907,245.4
241.31,123.8
241.3179,69.9
241.3993,802
241.4134,333.7
241.4851,51.8
241.6687,61.3
241.6983,96
241.8809,63.2
241.9554,316.5
241.9647,395.5
241.9797,80.3
241.9981,1158.2
242.0144,259.3
242.0193,1263.8
242.2164,219.5
242.2369,891.9
242.2979,137.6
242.3512,388.8
242.3985,332.4
242.4827,114.8
242.6,73
242.6305,163.6
242.7025,122.7
242.7798,66.9
242.8849,54.5
242.9256,9380.9
243.0336,456.3
243.0534,9171.2
243.0655,14047.2
243.0724,18
243.2083,168.6
243.3135,63.8
243.4017,420.4
243.4542,99.6
243.4885,106.4
243.5015,723.7
243.637,25.2
243.7676,124.7
243.8143,233.4
243.8341,529
243.8414,67.6
243.8871,70.1
243.9273,91.1
243.9728,111.5
244.0127,324.6
244.0635,138.6
244.1274,650
244.1537,95.7
244.1968,130.7
244.2059,172.6
244.2243,90.9
244.2599,76.3
244.267,94.6
244.2852,198.3
244.3163,143.1
244.6288,149.5
244.6516,309.1
244.7035,175.6
244.7744,337.6
244.7908,703.5
244.8251,148.2
244.871,3435
244.8903,246.9
244.906,689
244.9891,358.9
245.0717,143.5
245.1014,78.7
245.1252,357.1
245.2183,91.8
245.2259,247.4
245.2826,527.1
245.3084,115.2
245.3137,86.6
245.3673,704.8
245.5011,18.3
245.533,96.6
245.6986,22.1
245.7097,59.5
245.7464,586.2
246.0016,55.5
246.0113,46
246.0438,73.4
246.0495,114.3
246.1161,248.8
246.1646,75.2
246.2049,108.6
246.2565,110
246.3543,706.3
246.6001,680.5
246.7075,590
246.7391,153
246.8055,22.5
246.9602,147.1
247.0373,126.3
247.0492,83.9
247.0668,3312.1
247.0927,5504
247.3297,88.8
247.3742,24
247.4503,161.9
247.4939,69.3
247.7794,44.7
247.9106,490.3
247.9646,65.9
248.078,17.7
248.0959,28.1
248.1243,7964.7
248.1561,121.5
248.3388,256.6
248.5675,65.1
248.6314,725.6
248.649,114.9
248.784,133.8
248.8522,314.1
248.8708,7640.8
248.9188,120.3
248.9596,5630.3
248.9723,110.3
248.999,1300.1
249.0165,865.7
249.0613,12008.1
249.128,49.7
249.1497,425.8
249.1846,71.3
249.2186,80.2
249.2662,48
249.3503,97.2
249.3566,78
249.4746,746.6
249.5153,354.5
249.5522,199.1
249.555,71
249.6254,322.4
249.7337,188.8
249.9326,21.3
249.9498,150.6
250.0511,299.2
250.167,180.3
250.342,61.7
250.4584,87
250.4752,357.1
250.5634,22.9
250.6063,211.4
250.6086,205
250.6479,724
250.7703,540.4
250.8153,605.4
250.8274,421.6
250.8678,1520.6
250.9204,1128.7
250.9554,680.6
251.034,1402.9
251.0713,225.8
251.1642,72
251.1735,148.1
251.214,787.2
251.3672,217.5
251.4093,148.7
251.4419,76.3
251.6246,82.6
251.6431,849.5
251.654,326.3
251.6795,70.9
251.6934,96.4
251.7757,368.4
251.791,57.9
251.9079,80.2
251.9418,895.4
251.9762,82.7
251.978,97.4
252.0013,454.6
252.0209,598.8
252.0359,591.4
252.0457,96877.9
252.2359,59.5
252.3731,93.9
252.5483,163.6
252.7285,119.6
252.7974,406.9
252.9174,499.3
252.9502,128.1
252.9834,18.5
253.0168,115.4
253.0382,43.6
253.0493,4118.5
253.0562,465.6
253.1362,117.2
253.1712,19.8
253.3304,363.8
253.4187,46.4
253.4789,561.4
253.6037,182.4
253.6381,199.7
253.6425,147.9
253.6631,107.4
253.7546,215.1
253.9436,69.2
253.9543,76.8
254.0434,2810.2
254.0543,789.6
254.0702,21.7
254.0879,238.3
254.1008,78.4
254.1221,536.8
254.2494,309.8
254.2506,303.1
254.3595,50.4
254.5102,182.6
254.5171,50.3
254.6463,22.5
254.6554,140.7
254.7231,108.6
254.74,136.1
254.8159,1380.6
254.824,6144.9
255.0331,26098.4
255.0381,761.8
255.0464,1636.3
255.1345,228.6
255.1782,660.5
255.1966,218.7
255.2012,530.5
255.2248,225.9
255.2813,22.7
255.508,254.5
255.6244,135.6
255.6417,105.5
255.7009,273.8
255.7094,168.6
255.8372,357.5
255.9466,48.3
256.056,180.7
256.0668,151.4
256.141,337.7
256.2142,20.4
256.4542,85.2
256.7279,50.8
256.7393,128.1
256.7458,741.4
256.8137,579.2
256.821,8975
256.8573,272
256.8613,335.8
256.8666,56
256.9043,830.7
257.03,169
257.0434,122.7
257.0487,8785
257.0654,1047.3
257.0747,59512.4
257.1096,598.4
257.1169,77.2
257.1353,255
257.2263,21.3
257.248,33.3
257.2688,47.2
257.312,315.7
257.4491,18.7
257.5702,584.5
257.6234,220.8
257.6274,724
257.7031,95.8
258.0288,93.3
258.0782,2701.8
258.097,82.2
258.1104,12800.8
258.2845,79.2
258.3681,313.8
258.4182,405
258.5619,650.7
258.7277,65.6
258.8144,410.1
258.8181,2922
258.8996,1903.7
258.9675,184.7
258.9949,156.8
259.031,238.9
259.0738,70
259.1053,639.9
259.1416,89.8
259.2321,45.1
259.2987,375.3
259.311,61.3
259.4813,450.8
259.487,54
259.4976,97.5
259.6623,140.8
259.6821,86.7
259.7015,187.8
259.7875,227.3
259.938,103.1
260.0169,35.4
260.0426,328.8
260.0534,484.9
260.255,188.8
260.3806,118.3
260.4556,130
260.4684,46.3
260.5062,162.5
260.628,156.6
260.7196,54.1
260.7268,165.9
260.7748,149.3
260.8146,445.1
260.8444,1375.3
260.9297,144.8
260.9492,4416.9
260.9811,673.4
261.0122,502.5
261.0461,980
261.0883,687.6
261.1636,127.5
261.3022,214.3
261.3626,18.1
261.4711,1284.9
261.4747,632.4
261.5374,574.1
261.647,207.3
261.782,89.7
261.9461,62.5
262.2395,730.7
262.6649,368.4
262.6979,751.8
262.8442,133.5
262.8598,51.3
262.9109,99.6
262.9237,76.7
262.9556,86.9
262.9781,103.3
263.0134,268.9
263.0408,136.7
263.085,658
263.1944,127.7
263.5556,57.7
263.6203,18.3
263.7046,90.2
263.7654,72.7
263.8136,152.7
263.8474,477.2
263.8584,66.5
263.8739,145
263.8979,164.8
263.9719,578.8
264.0098,415.6
264.0428,57.7
264.2353,443
264.2689,47.4
264.5393,175.4
264.6217,261.8
264.6315,153.3
264.7899,394.2
264.8528,4607.6
264.8769,141.7
264.9285,17
264.9336,5389.1
264.9887,661.5
265.0166,135
265.0353,6329.4
265.0475,1773.5
265.0645,67.2
265.1124,83.9
265.1632,55
265.1901,82.8
265.2162,87
265.2525,26
265.2653,54.3
265.2927,82.9
265.3398,438.8
265.7182,104.8
265.7345,974.9
265.7981,56.9
265.9281,765.1
265.9837,87.8
266.315,353
266.32,20.3
266.4069,735.2
266.4223,74.2
266.6696,1041.2
266.6763,363.5
266.7083,149.1
266.8178,302.9
266.8279,294.6
266.8499,2488.5
266.9701,737.4
267.0133,61.8
267.0528,159.6
267.0905,418.5
267.2489,47.1
267.2549,84.4
267.2725,768.2
267.3206,633.3
267.4429,54.4
267.533,340.7
267.6509,164.8
267.7808,106
267.8023,90.7
267.8068,791.6
268.0319,79
268.162,27.2
268.2332,172.6
268.2421,415
268.338,136.6
268.3794,440.9
268.4549,201.4
268.5113,229.1
268.5387,179.5
268.5441,582
268.847,841.2
268.9342,18.1
268.9655,582.5
269.0123,19.9
269.0301,262.4
269.0352,327.7
269.0389,127.7
269.0449,22400.3
269.0487,49734.8
269.1404,64.4
269.1732,162
269.243,221.6
269.3949,320.7
269.5173,22.3
269.5712,778.5
269.5994,123.1
269.667,828.3
269.6997,100.2
269.7365,63.5
269.7643,392.4
269.8313,576.3
269.8851,698.1
269.9208,81.7
269.9268,453.9
270.0249,657.4
270.0475,17992
270.0696,27.3
270.1453,54
270.1515,405.7
270.1983,581.3
270.2156,247.2
270.2373,583.4
270.2896,109.8
270.4014,157.9
270.46,64.8
270.4737,352.7
270.4938,195.2
270.5087,138.6
270.5561,177.6
270.5769,88
270.7129,98.3
270.798,2847.3
270.9039,21.9
270.9151,164.9
270.9221,895.4
270.9437,108.7
270.9781,5750.4
271.0053,91.5
271.0242,498.7
271.0399,66.4
271.0508,903.3
271.0643,356.6
271.0781,1237
271.0902,1881.6
271.1105,69.9
271.214,68.7
271.2824,650.9
271.3499,582.5
271.5502,259
271.8397,102.5
272.0008,83.7
272.035,89.8
272.0433,85.6
272.0475,26.4
272.0805,289.6
272.0893,22.5
272.1037,93.4
272.1117,950
272.1214,48.2
272.2528,653.5
272.3235,52.4
272.3355,59.3
272.4573,116.6
272.4874,66.6
272.5084,306.3
272.5292,61
272.5343,23
272.585,130.1
272.6078,49.4
272.6747,804.7
272.795,3874.3
272.8714,50
272.9023,80.7
272.966,94.9
273.0131,46.1
273.0416,50.9
273.0486,4691.2
273.0825,121.4
273.2677,266.2
273.4425,85.5
273.6136,18.9
273.8108,343.7
273.8456,586.5
274.0693,36.2
274.0926,142.4
274.1415,140.2
274.1732,55.1
274.2157,286
274.3012,57
274.3882,637.9
274.4219,600.4
274.4415,674.1
274.4622,89.8
274.5377,22.6
274.5622,196.7
274.5756,183.6
274.6277,87.3
274.6575,162.3
274.6905,611.9
274.7423,155
274.792,1755.7
274.8764,69
274.9333,116.5
275.0618,95.6
275.0933,352.8
275.1432,107.2
275.1954,221.6
275.261,157.7
275.2805,139.5
275.2846,116.7
275.3089,225.9
275.504,277.5
275.5387,380.9
275.6604,154.6
275.6838,500.7
275.7047,802.6
275.7304,762.9
275.8179,405.4
275.9326,65.8
275.9647,111.5
276.0033,32.7
276.1753,228.8
276.3213,213
276.4996,191.3
276.5075,25.2
276.52,208.9
276.6145,797.5
276.7451,506.8
276.7536,55
276.9232,4206.7
276.9628,61.8
277.1628,78.1
277.1782,312.7
277.2737,334.8
277.2804,374.5
277.3117,134.2
277.3667,90.1
277.4265,96.5
277.6519,261.8
277.6805,188.3
277.899,69.1
277.9088,80
277.9226,78.6
277.9607,195.4
277.9721,22.5
278.0001,24.2
278.0191,462.3
278.0278,63.1
278.087,53.3
278.2308,53.7
278.3583,80
278.4715,169
278.4887,23.3
278.6439,673.4
278.7396,136.4
278.7418,232.7
278.7433,186
278.8939,383.2
278.8972,569.2
278.9877,841.5
279.0251,55.5
279.0567,59948.1
279.1374,254.5
279.152,557.5
279.2979,200
279.3456,223.7
279.3614,19
279.4144,130.1
279.5577,99.9
279.5738,159.8
279.6153,360.3
279.6729,18.3
279.7743,44.1
279.831,486.2
279.8374,59.4
279.8491,109.1
279.8521,129.3
279.9381,712.4
279.9941,88.2
280.0161,204.8
280.0461,18.2
280.06,2414.9
280.1152,47
280.1761,128.6
280.2326,19.4
280.2361,52.4
280.3267,351.9
280.3511,61.4
280.4322,83.9
280.4525,889.8
280.7189,68.1
280.7775,363.5
280.8267,2995.2
280.8681,89.4
280.9189,57.6
281.0015,326.8
281.0096,800.1
281.0514,303.4
281.0611,127
281.0828,694.1
281.1116,257
281.1164,18.4
281.239,44.4
281.3514,603.8
281.3556,173.2
281.3762,320.7
281.4243,202.7
281.4384,515.4
281.5466,349.5
281.5607,141
281.7159,540.1
281.7746,230.3
282.0081,136.5
282.0148,130.5
282.0398,27.9
282.0514,21.3
282.0647,444.6
282.0891,735.2
282.1379,22.9
282.1552,97.5
282.2303,518.3
282.3255,851.7
282.3418,447.7
282.4426,356.6
282.5237,101
282.6075,63
282.7026,179.2
282.7268,297.2
282.773,94.4
282.8237,3109.8
282.8326,21.6
282.9057,23.8
283.0189,64.6
283.0282,485.8
283.0431,62.9
283.1485,136.5
283.1619,89.9
283.2742,68.4
283.295,705.1
283.3113,136.1
283.375,154.1
283.4049,68.8
283.4174,701.7
283.4192,633.2
283.4428,270.9
283.4923,194.8
283.6799,47.7
283.8549,654.2
284.0512,29.3
284.0631,182.1
284.1405,51.7
284.194,470.2
284.2713,596.5
284.529,671
284.5357,118.9
284.5516,115
284.5717,405.1
284.6751,856.7
284.7118,407.6
284.7501,22
284.7862,217.3
284.8664,206.9
284.8955,180.6
284.9627,64.8
284.9782,50
284.9983,98.4
284.9995,113.6
285.002,75
285.0145,140.2
285.0231,906.4
285.0396,97.8
285.1534,82.8
285.1744,70.9
285.2932,124.1
285.5064,171.8
285.5452,125
285.6158,285.9
285.6184,256.3
285.6856,78.3
285.7426,429.3
285.7591,61.3
285.9221,160.7
285.9811,63.7
286.0193,325.8
286.0961,73.1
286.1225,122.4
286.1776,26.1
286.5661,118.1
286.6448,22.8
286.7717,1565.4
286.8055,76.5
286.9322,490.4
286.9391,181.4
286.952,3151.4
286.97,55
286.9989,50.1
287.0554,48664
287.1006,1054.5
287.1236,306.3
287.1318,291.6
287.2181,355.5
287.3517,65
287.3647,180.6
287.4151,122.9
287.5978,56.2
287.7653,662.9
287.8298,428.2
287.8917,423.2
287.9967,426.2
288.0138,47.3
288.0587,2272.6
288.0848,126.2
288.1557,6012
288.2045,133
288.2287,147.4
288.2961,75.6
288.5576,256.9
288.6113,98
288.6612,23.9
288.7688,2483.9
288.8509,59.7
288.9112,1183.7
288.9267,4801.6
288.9313,7103.4
288.9379,5845
288.9433,6817.6
288.9511,11380.6
288.9592,18106.4
288.9628,16266.4
288.972,18543.8
288.9753,18578.8
288.9856,20747.1
288.9928,19412.7
288.9967,16227.1
289.0045,9721.8
289.0073,10612.3
289.0182,5947.4
289.0246,1130.4
289.0311,955.8
289.0408,890.5
289.0455,617.7
289.0616,1230.9
289.0935,183.8
289.1136,292.8
289.1602,26.1
289.1992,58.7
289.2664,58.9
289.3769,838.8
289.4094,341.2
289.6448,293.7
289.734,153.1
289.789,101.7
289.9363,49.5
289.9842,123.8
289.9985,112.6
290.0004,127.9
290.1003,21.8
290.1277,776.6
290.2053,24.4
290.2363,50.2
290.3149,82.6
290.5951,733
290.7479,61.7
290.7658,481.4
290.8341,60.6
290.8555,358
290.8791,62.1
290.9057,138.9
290.975,678.8
290.9942,31.5
291.0137,260.2
291.0268,3959.7
291.0495,508.9
291.0767,93.7
291.124,342.9
291.2187,126.4
291.2761,143.3
291.4343,647.4
291.5481,140.8
291.6794,195.1
291.869,152
291.8943,671.5
291.9518,88.1
292.0614,311.2
292.08,23.5
292.1033,50.9
292.281,373.6
292.3237,21.1
292.3968,24.8
292.4839,84.6
292.6678,19.9
292.7002,117.1
292.7075,87.7
292.7553,96.9
292.8119,315.3
292.87,54.4
292.8983,859.8
293.0069,239.7
293.0611,188.1
293.0723,5485.3
293.0983,304772.2
293.254,573.8
293.3038,86.3
293.5502,273.5
293.5749,158.5
293.7259,293.2
293.7565,399.7
293.7771,57.1
293.7826,217.1
293.9284,430.3
294.0401,56.7
294.0955,205.4
294.1017,27311.7
294.1877,59.4
294.2676,17.9
294.2946,63.9
294.3638,438.9
294.5299,48.3
294.5369,776.7
294.7432,566.3
294.9217,95.3
294.9906,269.2
295.0306,3190.8
295.0562,113.9
295.0797,225.3
295.1026,2028.5
295.1947,8773.1
295.2459,320.7
295.2827,53.1
295.3177,141.5
295.33,216.4
295.4797,329
295.506,170.2
295.6369,83.7
295.6969,46.1
295.8571,162.1
295.8639,66.4
295.9311,370.4
295.9936,22
296.0666,357.1
296.1052,19.1
296.1985,186
296.3279,96.2
296.3597,78.1
296.5734,196.7
296.6146,154.3
296.6278,53.8
296.6578,274.1
296.9092,85.5
296.9877,149
297.0447,85.6
297.2421,769.8
297.2922,59.4
297.3029,691.5
297.3171,22.9
297.676,230.3
297.7155,106.3
297.7684,207.4
297.9273,64.5
297.9451,624.1
297.9853,267.8
298.0304,63.6
298.0424,24115.4
298.0532,736.2
298.1293,122.9
298.1654,314.8
298.1863,420.5
298.241,263.8
298.2617,79.6
298.3094,133.6
298.4572,131.1
298.4587,157.1
298.4614,97.2
298.6453,629.4
298.7983,424
298.8458,49.3
298.8555,708.6
298.9036,20.5
298.9862,105.9
299.023,1292
299.0458,886.1
299.1397,1027.7
299.1617,24.4
299.3254,65.7
299.3557,85.1
299.4379,52.7
299.4643,391.4
299.4812,51.6
299.5054,17.2
299.5201,144.9
299.584,247.6
299.6026,60.4
299.615,91.4
299.6503,164.1
299.6666,534.1
299.7393,831.3
299.7848,60.6
299.7925,17.1
299.8189,317.2
300.0383,212
300.046,33.5
300.0757,461
300.1962,76.1
300.2683,314
300.4651,119
300.6129,621.2
300.8173,21.1
300.8306,73.5
300.8545,661
300.8637,160.7
300.9127,57.4
300.9345,784.3
300.9565,94.3
300.968,477.2
301.0387,29726.1
301.0759,23.6
301.1288,26.3
301.1422,883.5
301.2124,738.6
301.2186,149.9
301.9057,716.3
301.9363,331.2
302.02,129.1
302.0351,110
302.0642,3648
302.0743,54.6
302.1278,209.2
302.135,585.1
302.1451,25.3
302.5698,56.8
302.671,336.3
302.6792,949.3
302.8291,1003.2
302.8624,676.3
302.8761,590.3
302.9451,286.6
303.0101,195.7
303.0332,118.4
303.0674,349.7
303.075,1648
303.146,87.5
303.2174,866.1
303.2238,623.1
303.2848,177.6
303.472,611.4
303.5249,21.3
303.5918,164.9
303.6405,238.9
303.7338,60.1
303.8998,160.6
303.9546,78.3
303.9771,873.9
303.9811,663.1
304.0598,154.1
304.0764,146.4
304.506,119.3
304.6976,717.5
304.7247,86.3
304.7526,95.9
304.8265,609.8
304.9137,492.7
304.9534,430.7
305.2106,64.8
305.3763,116.3
305.3834,345.8
305.5549,17.9
305.5722,759.9
305.6002,596.4
305.6171,260.2
305.7405,59.4
305.8915,516.6
305.9255,90.9
306.0956,84.3
306.1247,18.6
306.1704,111.5
306.251,84.5
306.43,337.9
306.481,79.9
306.7435,178.1
306.7605,589.6
306.7787,61.5
306.7908,73.8
306.9774,1408.5
307.0112,458.9
307.0907,18
307.2602,23.2
307.4022,23
307.4775,20.9
307.7463,74.2
307.7514,191.5
307.799,81.9
307.9039,139.1
307.931,103.7
307.9577,459.1
308.0184,25.3
308.0528,75.3
308.0924,84.5
308.1341,77.6
308.2803,205.1
308.3126,286.6
308.4434,135.4
308.5725,89.5
308.7627,139.1
308.7841,345.2
308.8786,1322.7
308.9543,69.5
309.0069,249.9
309.0375,4752.1
309.0474,81.2
309.071,75.8
309.0826,2665.4
309.0912,122.5
309.2352,97
309.2504,66.1
309.3131,92.5
309.4441,94.3
309.4666,642.7
309.5438,82.7
309.6324,187.2
309.7433,325
309.7545,105.2
309.8509,202.7
309.875,25.6
309.8952,331.7
310.132,80.6
310.3973,317
310.44,321
310.4584,88.6
310.4728,328.8
310.5919,133.7
310.7435,280.5
310.8759,1391.7
310.8944,23.2
310.9712,86.1
311.0031,86.8
311.1215,133.4
311.1438,577.5
311.1769,208.2
311.3522,304.4
311.5165,270.4
311.5295,232.9
311.6474,74.8
311.6783,939.3
311.7482,272.8
311.8886,332.2
312.0208,700
312.0415,841.5
312.128,76.2
312.1997,72.6
312.3743,141.2
312.6153,64.8
312.6408,129
312.6598,126
312.8725,634.8
313.0028,287.5
313.0557,120.6
313.1091,664.6
313.1983,20.9
313.2741,24884.3
313.3865,64.4
313.523,801.7
313.5287,120.8
313.6309,69.9
313.6579,20
313.7188,108.1
313.7356,57.8
313.7966,44.7
313.836,231.6
313.8791,759.5
314.0148,296.4
314.0916,557
314.1719,75.1
314.2048,97.2
314.2771,2234.3
314.3004,179.3
314.3448,244.8
314.5499,76.1
314.5765,172
314.6029,72.5
314.6747,453.9
314.6877,273.1
314.8372,2788.7
314.8507,503.4
314.8768,166.2
314.8974,617.8
314.9993,3312.2
315.0415,101.1
315.0552,13551.3
315.062,3791.9
315.0671,25111.5
315.0694,29700.5
315.0735,20820.5
315.0803,7571572
315.0898,15223.4
315.0939,4762.5
315.0964,4187.8
315.0983,3837.2
315.1025,1355.9
315.1072,1001.3
315.1086,860
315.1132,368.5
315.1217,70.9
315.1614,3940.7
315.2073,80.3
315.2604,130.4
315.3239,5122.6
315.439,197.9
315.4866,162.1
315.6109,171
315.7006,289.9
315.71,121.6
316.0524,70.7
316.0682,2249.4
316.0775,42036.4
316.0836,778644.5
316.0991,142.4
316.1116,411.9
316.3976,99.8
316.4716,367.9
316.4849,136.5
316.5903,52.8
316.6477,57.9
316.6586,319.8
316.6869,341.4
316.8019,65.1
316.8401,234.9
316.9436,136.9
316.9795,291.3
316.9864,1310.1
317.0022,415.3
317.0126,86.5
317.0564,5920.1
317.0652,2860.2
317.0716,127.9
317.0841,88823.7
317.1043,66.7
317.2346,118.4
317.2406,511.8
317.2657,23.9
317.2824,345.9
317.3371,18.3
317.3568,215.3
317.3683,118.4
317.5093,187
317.5807,252.1
317.5936,22.7
317.6007,192.6
317.7518,94
317.8565,82.7
318.0603,280.5
318.0693,59.3
318.0877,9093.3
318.3054,171.7
318.3171,22.4
318.3997,52.1
318.5112,130
318.5657,348.4
318.5776,265.8
318.7386,26.2
318.9338,222.6
319.0927,48.1
319.1143,95.9
319.1345,180.3
319.1477,767.3
319.1615,21.6
319.1948,16823.2
319.2304,635.7
319.2683,253.3
319.3971,97.6
319.4385,59.3
319.6445,56.2
319.6996,546
319.7934,348.9
320.0142,48
320.0476,65.5
320.0746,163.2
320.199,716
320.2246,543.3
320.2587,2533
320.3308,635.4
320.415,135.5
320.434,62.1
320.4438,385
320.4602,194.3
320.5057,250.4
320.5304,1185.9
320.7513,227.7
320.8001,388.1
320.9106,328.5
320.9635,297.9
320.9979,51.7
321.0128,149.7
321.1447,134.6
321.2105,15331.3
321.2619,53.4
321.3779,53.3
321.4978,109.5
321.759,124.9
321.7646,73.3
321.7875,336.8
321.8016,190.3
321.8235,24.1
321.8583,90.6
321.8833,51.2
322.0088,204.8
322.6644,111.5
322.6886,117.7
322.7148,21.6
322.8119,541
322.8733,661
322.9319,412.5
323.0207,8555.7
323.2264,33.2
323.4629,426.7
323.6626,243.7
323.7176,403.4
323.7391,152.1
323.794,734.2
323.8161,68.8
323.8288,57.7
323.919,149.4
323.9387,168.5
324.0022,973.7
324.2727,188.2
324.5045,540.2
324.5338,179
324.5896,1234.5
324.6004,3727.8
324.6054,2762.3
324.6171,1926
324.6344,112.7
324.6719,381.8
324.7152,91.9
324.8088,724.7
324.8529,1342.4
324.9292,528.8
324.9657,164.9
325.0367,75.4
325.0569,662.6
325.1101,69.3
325.1487,179.1
325.2097,491.6
325.302,147.5
325.3782,273.1
325.3915,59.8
325.3979,122.3
325.9229,56.6
326.0053,69.5
326.0232,147.6
326.4006,50.5
326.4735,345.4
326.6455,325.6
326.6745,66.8
326.7499,190
326.8055,461.9
326.8239,572.3
326.8506,500.7
327.1743,698
327.2187,98.8
327.2273,4719.5
327.2446,123.5
327.3298,60
327.4855,369.5
327.746,716.7
327.8762,71.9
327.8929,49.3
328.1002,21.4
328.2651,34.2
328.412,87.7
328.4421,50.5
328.8219,616
328.8316,196.9
328.9357,673.8
328.9471,55.5
328.9962,57.7
329.0416,638.4
329.0956,1250.7
329.5895,281.8
329.747,160.2
329.8319,177.9
329.873,426.1
329.9075,73.1
330.0456,54.2
330.0591,275.5
330.0696,30.6
330.1737,20.9
330.2939,177.6
330.3019,191.2
330.4909,52.7
330.5649,225.4
330.5811,593.4
330.7342,99.1
330.822,130.5
331.0201,134.1
331.0454,150559.5
331.0542,1084975
331.1708,137.9
331.371,219
331.4534,20
331.7974,217.1
331.9321,159.4
332.0294,200.7
332.0483,9255.2
332.0576,95195.6
332.3577,393.8
332.3963,212.2
332.5323,77.5
332.8403,1352
332.9612,598.7
333.022,19.5
333.0524,63899.1
333.0579,9995
333.2273,437.5
333.8486,444.7
333.9533,266
334.0557,6073.2
334.0857,723.2
334.2149,47.5
334.3606,739
334.4032,56.7
334.7212,75.7
334.8539,83.7
334.9096,19.7
334.9484,564.1
334.9781,396.4
334.9848,21.1
335.0182,182.6
335.0382,866.2
335.0982,591.4
335.1017,686.5
335.1736,74.9
335.227,328.3
335.2769,79.9
335.3103,44.3
335.4391,72.4
335.5714,84.6
335.7339,91.7
335.7604,164.5
335.9552,585.5
336.0095,314.5
336.1561,48.5
336.2971,360.2
336.7636,155.1
337.0365,13302.6
337.0498,31005.9
337.0622,864871.2
337.1587,256.4
337.2337,69.2
337.2744,1190.1
337.331,118.4
337.4814,77.4
337.522,92.9
337.579,300.1
337.9744,49.3
338.0081,325
338.0495,287.9
338.0656,78013.4
338.082,17.9
338.1513,410.4
338.1682,617.8
338.3407,127.7
338.3713,107.5
338.4427,548.3
338.5823,213.3
338.5889,307.6
338.652,802.2
338.8016,69.6
338.8619,655.6
338.9209,885.6
339.0302,816.2
339.0385,7221.1
339.0473,2695.1
339.0661,7802.8
339.2434,20.4
339.2896,6393.4
339.6153,565.7
339.7231,689.5
339.8544,327.6
340.0047,116
340.0196,19.8
340.0424,150.6
340.3757,70.5
340.4622,65.4
340.5086,57
340.5934,96
340.6936,110.6
340.9217,306.4
340.9649,667.5
341.0183,27.5
341.2476,640.4
341.2654,572.5
341.306,917.6
341.3386,141.4
341.5406,65.4
341.6032,113.1
341.6929,497.3
341.8163,132.4
341.9903,345.5
342.0083,85.8
342.0162,73.7
342.0296,1245.4
342.0693,36.4
342.0997,136.9
342.678,179.4
342.7806,665.9
342.8076,67.3
342.8625,22.9
343.1376,777.1
343.184,738.3
343.1948,11392.9
343.2143,196.1
343.4245,200.6
343.4346,475.4
343.4471,200.4
343.5493,89.9
343.6912,188
343.8486,97.4
343.9962,55.3
344.104,56.3
344.1974,102.4
344.2208,651.1
344.2487,54.5
344.3516,82.5
344.4417,81.1
344.5057,436.5
344.5473,358.3
344.5676,351.9
344.6865,112.3
344.7238,323.2
344.7923,1079
344.8102,22.4
345.2078,59.5
345.646,366.6
345.6981,61.2
345.7495,236.5
345.8078,81.8
345.8377,20.8
345.8902,216.8
345.9374,332.6
345.9842,2065
346.0102,71.2
346.3871,643.8
346.3975,643.2
346.5422,212.6
346.7037,49.9
346.7508,111.3
346.7901,258.2
346.845,283.4
347.2485,22
347.2621,138.7
347.2777,320.3
347.2925,46.6
347.6112,131.1
347.6227,638
347.6728,274.1
347.7859,154.5
347.9623,688.7
347.9738,308.4
348.0663,77.7
348.1473,89.6
348.2043,24.7
348.4771,277.8
348.5738,420.9
348.6519,707.4
348.814,452
348.8489,704.6
348.8613,62.5
349.0191,20.1
349.6162,60.1
349.626,432.3
349.6602,87.7
349.6661,59.2
349.6996,77.3
349.746,65.2
349.7975,472.9
349.9908,65.2
350.0041,19.3
350.0189,1762
350.0672,135
350.1081,367
350.4964,50.3
350.5089,18.8
350.5205,1000.5
350.5842,842.6
350.6483,406.6
350.8242,112.9
351.0416,167.6
351.2535,58.7
351.3665,55.4
351.4433,110.2
351.4728,351.8
351.6849,192.9
351.9197,68.7
351.9411,352
351.9897,127.9
352.0146,222.7
352.0917,78.3
352.1888,564.6
352.2477,374.6
352.299,228
352.3621,69
352.6913,209.4
352.8338,621
352.9232,696
353.0129,66.9
353.0273,173785.7
353.0362,309383.1
353.0742,67.9
353.1347,195.7
353.1868,104.7
353.3038,18.4
353.4591,137.5
353.7738,353.3
354.0304,13918.5
354.0395,26648.1
354.0584,392.4
354.1509,76.5
354.1742,78.4
354.2688,53.3
354.4463,144.5
354.5114,404.4
354.6854,90.2
354.7718,383.1
354.8533,164.4
355.012,2950.8
355.0346,15689.9
355.0703,455.8
355.1363,643
355.2161,125.1
355.2292,212.3
355.2453,118.2
355.3117,72.7
355.3174,666.7
355.3391,84.7
355.4513,133.3
355.4592,60
355.4782,358.8
355.4945,71.1
355.5868,23.7
355.6011,81.2
356.0154,156.5
356.0384,123.2
356.0709,113
356.2792,157.1
356.317,82.4
356.4583,189.6
356.48,591.5
356.6162,131
356.6436,86.4
356.7481,153.3
356.7839,45.2
356.8178,667.9
356.8489,630.1
356.8625,107.1
356.9521,58.6
357.0087,1086.9
357.0199,1120.3
357.0887,22.5
357.1119,674.4
357.2184,232.9
357.3323,90.4
357.5592,503.5
357.609,535.6
357.6187,127.5
357.6223,253.1
357.6319,201.8
357.6555,127.4
357.6672,759.7
357.6754,362.4
357.7418,104.3
357.7649,36.1
358.0121,147.9
358.1456,411.5
358.1883,332
358.4206,56.8
358.4355,554.8
358.6103,173.4
358.6373,64.4
358.8758,60.2
359.0076,580.6
359.0318,24648.8
359.0442,621810.5
359.1034,567.5
359.2154,139.7
359.3933,139.3
359.4279,486.1
359.4435,138.5
359.4588,131.9
359.4793,68.5
359.4853,63.2
359.5137,138.5
359.5187,688.4
359.5267,83
359.5403,24.9
359.5502,781.6
359.5679,364.3
359.5804,410.2
359.591,1015.9
359.5977,377.1
359.6016,375.8
359.6174,250.6
359.6301,229.3
359.6457,619.4
359.7712,310.3
359.8035,105.9
359.8237,434.9
359.8328,61
359.9679,529.7
360.0107,26.4
360.0476,55612.1
360.0663,47
360.1013,75.4
360.1463,64.8
360.264,501.2
360.2747,63.9
360.3239,281.8
360.3698,89.2
360.4382,106.8
360.5299,179.1
360.824,150.3
360.922,444.7
360.9358,296
360.9957,194
361.0024,724.4
361.0204,11664.2
361.0291,506.7
361.0482,4385.8
361.2615,80.9
361.2738,457.2
361.3272,164.2
361.5637,75.4
361.5762,197.8
361.61,219.4
361.8558,288.4
361.8773,57
361.9443,184
361.9582,124.8
361.9833,198.9
361.9966,763
362.0231,95.2
362.0329,118.1
362.2777,54.7
362.3676,123.5
362.4114,63.8
362.5381,89.2
362.71,221.9
362.905,21.4
362.9615,107.3
363.037,140.2
363.1066,23.3
363.1606,65.2
363.2809,48.3
363.3515,777.7
363.3601,667.6
363.8833,260.4
364.1233,69.5
364.3147,736.7
364.65,139.2
364.6611,309.4
364.6984,338.8
364.7417,76.4
364.8007,69
364.9167,649.9
364.9771,118.7
365.0029,399.4
365.1033,745.8
365.2605,84
365.2644,191.4
365.5887,357.8
365.7446,169.2
366.0208,140.3
366.0907,144.3
366.1545,760.1
366.3902,114.4
366.3969,193.1
366.7711,197.9
366.8522,706.1
366.8722,556.3
366.8819,522
367.0048,70.8
367.1218,3180.9
367.1486,95.1
367.1949,1802.5
367.2805,187
367.4383,692.6
367.502,683.4
367.8831,19.2
367.9919,80.6
368.0673,1035.2
368.4995,371.1
368.5797,111.5
368.7176,348.9
368.793,379.4
368.8453,228.1
368.8705,472.5
368.9922,1982.8
369.0012,21738.9
369.0102,11036.4
369.1737,158.6
369.1816,181.5
369.3142,123.7
369.3524,257.2
369.4177,409.8
369.4874,240.5
369.5116,635.4
369.5688,67.9
369.5799,344.8
369.6173,63
369.7518,19.2
369.9143,630.1
369.9852,292.4
370.005,218.5
370.013,86.1
370.0429,110.9
370.1398,63.3
370.2571,639.3
370.4581,21.1
370.4642,50.7
370.6531,109.9
370.8389,79.9
370.9235,497.6
370.9733,251.1
371.0009,79.1
371.0096,238
371.0886,247.5
371.1098,94.3
371.1866,150.7
371.2089,661.9
371.281,58.1
371.4539,241.9
371.4839,50.7
371.6611,87.6
371.7073,696.9
371.785,365.1
372.0525,21.2
372.1954,198.7
372.3236,157.4
372.54,20.7
372.7255,263.1
372.7472,112.1
372.7706,487.3
372.8558,520.9
372.9389,500.8
372.9645,431.5
373.1224,862.1
373.1583,586.9
373.193,680.9
373.3598,47.7
373.5183,23
373.8068,65.7
373.8682,148.5
373.9512,535.5
374.0019,732
374.0415,49
374.1813,45.5
374.3559,318.3
374.6499,223.4
374.721,122.8
374.7892,820.4
375.0093,155203.4
375.0182,193390.2
375.0324,333.6
375.1062,76.9
375.3176,564.8
375.3481,426.7
375.4522,152.3
375.4883,100.4
375.5574,115.9
375.6073,138.3
375.743,85.7
375.7725,53.1
375.9348,512.5
376.0124,11752.1
376.0214,16252.7
376.3757,60.3
376.7042,67.8
376.7319,357.9
376.9942,4640.9
377.0165,10006.1
377.1355,49.3
377.3947,27.5
377.6733,889.1
377.9164,59.9
378.0366,258.5
378.3347,378.2
378.4725,319.1
378.5296,137
378.6278,69.2
378.7054,99.3
378.7392,650.2
378.889,136.7
378.9494,633.6
378.9906,77
379.0024,144.6
379.0681,136.7
379.1404,62.2
379.1855,707.4
379.1936,947.6
379.3375,24.1
379.3473,60.1
379.3677,68.6
379.5113,109.2
379.7236,189.8
379.7641,719.1
380.0018,117
380.0386,54
380.0993,697.4
380.1468,164.8
380.1904,317.8
380.355,53.1
380.6124,75.3
380.6569,100
380.8776,626.9
380.9785,17.5
380.9892,29.6
381.0136,30239.6
381.0261,346480.4
381.1407,449.4
381.1933,58.9
381.3706,713.1
381.6195,108
381.6573,386.7
381.665,1165.6
381.6738,120.3
381.729,163.6
381.868,205
381.8789,313.5
381.9479,49.5
382.0117,110.1
382.0295,32521.4
382.2586,156
382.3864,350.9
382.4308,343.9
382.4416,250
382.5479,81.7
382.7673,2106.1
382.8341,189.5
383.0111,876.7
383.018,389.4
383.0295,432.9
383.0578,210.9
383.1075,22.2
383.1164,141241.8
383.1841,197.9
383.5907,134.5
383.6315,212
383.9744,18.3
384.0104,340.3
384.1198,14877.7
384.2913,325.4
384.3435,105.1
384.3666,305.1
384.4091,114.5
384.4795,284.1
384.5371,108.8
384.5739,60.5
384.6065,82.4
384.7645,488.1
384.821,68
384.8565,731
384.9696,113.2
385.1207,555.7
385.2737,34.9
385.4274,200.7
385.4995,51.1
385.5661,71.8
385.5989,63.9
385.6259,77.3
385.8336,352.5
386.0052,78.4
386.1056,530.1
386.1648,64
386.1783,65.9
386.2119,107.4
386.2189,314.7
386.2495,612.4
386.313,99
386.3551,51.6
386.4208,815.3
386.6167,120.4
386.6573,143.2
386.9871,65.4
387.0023,942.2
387.618,207.9
387.6811,153.8
387.7455,612.3
387.8089,83.8
387.9491,891
388.0507,119.1
388.2522,137.3
388.4442,647.3
388.4701,48.8
388.5131,17.8
388.5955,48
388.6273,346.3
388.7119,484.5
388.7464,614.1
388.7969,325.2
389.1289,24.8
389.3038,250.5
389.4709,281.9
389.5538,318.3
389.6324,138.6
389.6993,171.7
389.7119,195
389.8906,71.7
389.9738,3069.4
390.1103,729.2
390.117,175.5
390.3112,87.6
390.3186,628.1
390.3683,752.8
390.4023,649.8
390.6758,301.3
390.7102,429.4
390.7988,2149.3
390.8547,127.2
390.8628,165
390.8714,187.6
390.8989,161.7
390.974,5757.8
390.9831,30404.8
390.9921,21939.6
391.0245,498.8
391.1045,63
391.113,327.7
391.1676,180.7
391.1898,83.2
391.4908,222.8
391.5399,59.6
391.6252,116.2
391.6381,54.1
391.7201,116.3
391.7407,410.2
391.9961,621.4
392.0135,263
392.0909,21.4
392.126,18.4
392.2593,194.5
392.2979,363.3
392.3123,58.5
392.5822,160.9
392.6559,151.3
392.7438,61.1
392.7961,1163.5
392.9266,79.2
392.9536,613.3
392.968,836.5
392.9825,278.3
392.9904,549.7
393.299,24.6
393.6237,211.4
393.7767,365.4
393.8388,137.1
393.8882,112
394.1677,672.5
394.1781,66
394.4316,182.5
394.5993,259.1
394.6498,119.6
394.7711,208.8
394.7813,356.5
394.793,1291.4
394.9688,94.2
395.2917,631.4
395.3893,193.5
395.4918,348.3
395.505,132.7
395.5258,506.7
395.6021,845.4
395.7822,83
395.9794,53.1
396.0345,212
396.2339,162.3
396.329,255.8
396.4099,295.9
396.4725,109.4
396.4906,76.6
396.6365,655.9
396.6688,248.6
396.7026,531.6
396.7265,165.7
396.8362,74.4
396.8702,69.9
396.9125,425.8
396.9912,158323.5
397,123241.9
397.0136,20.8
397.0707,342.2
397.0925,182.5
397.2054,119.2
397.5787,126.1
397.6018,85.7
397.6366,93.3
397.7201,57.7
397.9395,742.9
397.9943,12575.5
398.0034,11153.4
398.0243,94.2
398.0459,83.1
398.0593,77.1
398.1142,63.4
398.1848,414.4
398.2024,163.6
398.2418,3832.2
398.2822,22.7
398.3933,337
398.4144,364.7
398.4997,92
398.7132,32.8
398.7412,2200.7
398.762,29.1
398.8102,145.9
398.9159,777.1
398.9752,45.8
398.9986,2799.9
399.0486,48.2
399.1891,108.8
399.2664,677.7
399.3662,132.6
399.5024,128.2
399.6567,118
400.1372,569.2
400.2407,67.1
400.3365,189.6
400.5127,690.4
400.6042,19.5
400.6314,256.4
400.6648,113.3
400.7381,1217.3
400.8484,203.9
400.8796,202.1
400.9718,75.8
400.9844,709.7
401.0247,50.9
401.0616,60.2
401.2766,879.4
401.3829,63.9
401.5338,178.5
401.6421,67.3
401.8906,762.5
401.976,106.8
402.1328,100.6
402.444,528.9
402.463,57.2
402.6948,86.3
402.7793,83.5
402.8254,454.4
402.8616,54.1
402.9711,23.3
403.0081,260871.6
403.088,51.1
403.2926,113.7
403.4258,272.9
403.563,46.9
403.5946,57.6
403.6055,161.5
403.869,75.5
404.0114,25304.1
404.1133,636.9
404.2161,20.4
404.2439,263.8
404.8665,177.6
405.0124,274.5
405.1214,66.5
405.2504,55.3
405.4994,186.7
405.6907,111.1
405.8308,97.2
405.8749,121.8
405.8897,57.3
405.8982,699.9
405.948,1338.9
406.2291,50.2
406.2385,70
406.3096,108.4
406.3294,1238.1
406.3784,114.8
406.5527,184.6
406.743,119.7
406.7728,1342.3
406.8181,140.1
406.9263,660.5
406.9572,334.4
407.0888,315.4
407.1596,256.9
407.2176,667.3
407.3123,112.6
407.3333,119.2
407.5764,248.9
407.7764,787.1
407.8152,239.7
407.8364,808.2
408.1278,464.2
408.2117,23.3
408.2278,128.2
408.3637,51.1
408.4022,80.9
408.5421,68.7
408.7694,2206.9
408.8671,108.5
408.8904,886.9
409.2908,138.3
409.3079,18.6
409.3322,59.8
409.7018,252.5
409.8042,640.2
409.8889,71.2
410.0273,128.4
410.1565,335.3
410.2592,26.1
410.4137,184.2
410.4633,97.8
410.4997,283.3
410.745,140
410.7665,443.5
410.857,863.5
410.9595,60.9
411.0394,853.1
411.3334,47.3
411.6114,68.7
411.6241,107.9
411.7554,692.3
411.845,46.2
412.0996,78.5
412.1513,68.6
412.2497,233.4
412.3217,3752.3
412.5839,21.4
412.6516,249.9
412.7063,89.1
412.727,58.3
412.7581,448.3
412.9122,675.5
412.9651,34654.9
412.9739,23153.9
413.2666,6808.9
413.3242,506.8
413.3923,671
413.5817,719.1
413.6298,105.3
413.6614,561.4
413.9391,240.9
413.9682,1277.6
413.9764,227.4
414.1268,131.7
414.1413,21.1
414.2094,202
414.2526,760.1
414.2703,223
414.5005,274.4
414.6954,202.6
414.7152,1621.1
414.7247,81.8
414.8081,49.8
414.9725,457.3
414.9979,4112.1
415.1516,374.1
415.2236,774.6
415.3402,120.7
415.3469,262
415.4474,55.3
415.6553,339.5
415.9382,295.6
415.9545,101.8
416.051,701.3
416.0717,340.9
416.1355,6042.4
416.1634,170.5
416.2143,15416.6
416.4895,96.1
416.5912,182.7
416.7618,105.7
416.8019,1149.5
416.9418,58.9
417.0021,910.4
417.0718,318.7
417.1838,58.7
417.2177,1705.1
417.291,136.4
417.4436,103.4
417.5665,493.3
417.8919,298
418.3178,73.8
418.4361,124.4
418.4753,75.5
418.5814,517
418.726,23
418.7992,935.7
418.9103,66.1
418.982,110333.5
419.4474,878
419.9853,6683.1
420.0092,97.8
420.2206,628.4
420.4061,73.5
420.6454,78.3
420.7878,70.6
420.799,122
420.899,67.8
420.9574,841.1
420.98,2875.7
421.0187,430.2
421.0511,145.4
421.2401,120.9
421.4255,96.5
421.7458,562.5
421.7864,80.5
421.8201,140.7
421.9201,205.1
421.9455,568.8
421.962,838.4
422.1747,172.6
422.2041,52.2
422.2402,630.5
422.252,583.5
422.3039,48.9
422.577,778.8
422.7463,487.4
422.7737,217.1
422.9557,81.4
422.9815,76.1
423.035,117.8
423.1232,81.6
423.1975,59.8
423.4255,218.4
423.4552,741.9
423.5784,311.2
423.6378,269.9
423.7576,216.8
423.7996,339.7
424.1589,230
424.3054,541.5
424.3929,17.3
424.4487,188.7
424.4971,250.9
424.744,670.9
424.7777,191.1
424.8807,122.3
424.9264,181.9
424.9751,53.1
425.12,165.9
425.2472,119.9
425.2555,119.4
425.4214,809.5
425.4535,82.3
425.5077,22.4
425.539,88.1
425.637,635.5
425.922,77.4
426.039,606.2
426.2041,296.9
426.2566,855.6
426.3526,373.5
426.4163,92.8
426.8167,485
426.927,124.3
427.0568,104.3
427.0738,128.1
427.2099,642.4
427.4813,77.9
427.5134,62.3
427.5741,168.8
427.6238,192.7
427.8096,165
427.8678,577.7
427.9782,77.4
428.3765,19.8
428.8474,70.9
428.9193,134.8
428.939,3593.8
428.9496,199
428.9599,165.1
428.9758,489.6
428.9893,242
429.043,57.4
429.089,227.8
429.2407,37.8
429.407,78.2
429.5657,51.4
429.6345,59
429.7294,313.8
429.816,49.5
429.877,49.9
430.1257,210.1
430.2847,606
430.5809,338.5
430.6575,186.4
430.826,89
430.8529,135.3
430.8818,121.6
430.9003,133.1
430.9167,805.3
430.9446,346.5
431.1311,83.9
431.2141,24.3
431.2673,402.8
431.3413,198.4
431.4241,59.6
431.4936,673.7
431.6437,601.1
431.9017,20.5
431.9759,343
432.2292,56.4
432.2686,62.5
432.3609,99.5
432.4958,117.3
432.6935,439.9
432.7127,148.8
432.9675,196.4
433.431,88.7
433.4598,72.3
433.5355,62.6
433.8562,158.3
434.1426,73.8
434.1954,111.5
434.2264,81.1
434.9559,22667.2
435.1711,53.8
435.2653,329.5
435.8704,902.8
435.9391,854.4
435.9982,269.4
436.0317,141.6
436.4646,826.8
436.6055,73.3
436.7576,206.3
436.9545,907.5
437.1119,179
437.1658,455.8
437.2048,827.6
437.2204,66.4
437.2301,20.6
437.7226,63.1
437.9427,63.6
437.9797,20.2
438.6596,160.2
438.9267,236.2
438.959,58.5
438.9723,2752.2
438.9848,25992.2
439.1298,122.1
439.1772,102.1
439.5376,60.2
439.9309,664.9
439.9888,1273.5
440.1152,106.5
440.1371,58.8
440.2429,121.5
440.2548,93.9
440.291,280.9
440.724,458.4
440.7366,195.5
440.9702,174.5
440.9817,5797.4
441.223,164.9
441.2346,592.3
441.2985,198.5
441.3309,64.5
441.3409,128.9
441.3937,130.8
441.7333,175.7
441.7446,316.9
442.0094,48.3
442.2354,265.2
442.4765,60.6
442.5661,180.3
442.6049,254.8
442.6655,1040.9
442.8313,127.1
443.0953,20.3
443.1345,333.4
443.1697,52.2
443.2549,311.4
443.6056,55.9
444.0177,701.3
444.089,736.2
444.1865,73.8
444.2488,161
444.3774,141.8
444.386,733.8
444.7038,732.4
444.8193,135.4
445.07,88.7
445.1866,20.4
445.2681,87.2
445.2968,145.3
445.3734,54.5
445.3833,306.7
445.5472,73.3
445.8534,777.9
446.1053,279.2
446.2067,90.7
446.3497,122.7
446.4341,230.7
446.6889,619.4
446.8764,125.2
447.335,47.3
447.4517,243
447.4718,138.1
447.6605,58.4
447.8196,42.6
447.8804,18.2
447.9282,116.4
447.9737,283.2
448.1686,57.2
448.2013,97.6
448.2382,131.3
448.7839,667.7
448.9925,18.2
449.0579,53.7
449.1185,143.4
449.1543,1167
449.3098,296.4
449.546,82.3
449.6381,20.5
449.7136,310.3
449.991,168.6
450.0698,23.7
450.0887,372.9
450.0953,49.8
450.1578,176.7
450.2055,158.4
450.3724,67.5
450.637,20.1
450.6694,182
450.7441,334.4
450.8889,520.5
451.1498,84.3
451.2026,115.5
451.5834,149.6
451.6513,373.1
451.6965,380.5
451.9224,469.6
451.9345,69.3
451.9514,828.4
452.0303,447.1
452.3918,50.2
452.5,75.8
452.5372,19.3
452.5562,217.4
452.5804,127.6
452.7507,430.6
452.8,205.6
452.897,165.2
452.9269,106.9
453.0087,70.7
453.0868,611.1
453.2191,88.2
453.4694,652.5
453.5686,19
453.5956,54.5
453.6088,622.6
453.8407,548.2
453.8936,948.7
453.985,55.3
454.2188,188.5
454.4487,79.3
454.6147,55.3
454.6275,779.1
454.8821,21.9
454.95,38132
454.9579,12146.5
455.3518,60.9
455.5137,169.2
455.6439,81.7
455.9518,911.6
455.9763,96.5
456.1748,59.5
456.3275,71.6
456.5169,745
456.7003,425.7
456.768,46.2
456.7913,396.1
456.9038,812.9
456.9355,310.1
456.9476,6931.4
457.0337,47.5
457.1612,55.1
457.184,79.2
457.2331,5788.5
457.7762,74.8
457.8409,128.8
458.0311,92.1
458.0681,123.3
458.2154,64
458.3573,178.5
458.6971,478.9
458.7412,530.9
458.7869,464.2
458.9616,1669.3
459.2486,286882.2
459.2718,80
459.4325,331.3
459.4488,407
459.541,70.5
459.6968,87.7
459.7948,47.1
459.8582,52.8
459.9587,121
460.1467,181.4
460.2141,557.6
460.2283,341.5
460.252,61241.5
460.2681,73.5
460.561,174.6
460.8395,716.7
460.9181,285
460.9332,387.8
460.9667,98861.1
461.2539,3098.6
461.269,634.8
461.3034,59.2
461.3828,636.2
461.3942,19.4
461.4979,231
461.5292,70.5
461.6379,381.6
461.8574,70.1
461.9062,84.8
461.9699,5577
462.0019,148.8
462.3937,56.9
462.6718,88
462.7127,183
462.9639,25733.1
463.0237,627.7
463.326,62.8
463.3962,92.2
463.6606,674.8
463.6949,55.5
463.9677,1354
464.1293,696.9
464.5681,181.8
464.7056,46.2
464.9785,12222.4
465.1671,525.5
465.3576,345
465.6329,712.1
465.8959,341.4
465.982,590
466.0289,656.3
466.116,706.8
466.1433,273.3
466.4939,161
466.6793,106.1
466.6885,50.7
466.7081,92.1
466.7202,287.8
466.7286,392.4
467.0397,651.8
467.0744,74.5
467.1196,56.4
467.2621,110.9
467.2818,631.7
467.6439,620.6
467.6862,332
468.2597,83.1
468.3355,98.6
468.7254,437.3
468.7357,360.3
468.7829,410.2
468.8461,362.5
468.9252,135.6
469.0909,174.2
469.2047,633.9
470.026,382.4
470.8007,152.5
470.8788,204.5
470.9111,333.7
470.9237,22283.1
470.995,4803.4
471.2863,821
471.3088,257.9
471.4125,69.2
471.5014,290.1
471.6227,788.7
471.6977,823.7
471.8781,777.7
471.9268,1122.2
472.3953,673
472.449,118.4
472.6158,209.8
472.6746,372.7
472.9207,4850.1
472.9339,442.5
472.9523,27.2
472.9769,83.4
473.0718,215.9
473.1491,212.1
473.157,326.4
473.2402,747.2
473.2639,1036.3
473.546,192.5
473.5628,1005.7
473.6091,142.1
473.6637,266.9
474.0063,75.7
474.0272,54.3
474.1352,51.4
474.1918,113
474.4361,85.5
474.4778,1054.8
474.6148,94.1
474.6779,114.5
475.2226,19807.5
475.6431,23.4
475.9651,442.9
476.0868,231.9
476.114,760.3
476.2261,3159.3
476.7569,832.5
476.9407,59567.7
477.0067,78.3
477.2856,77.5
477.4124,788.8
477.5842,303.9
477.9445,2545.3
478.0166,23.9
478.0655,551
478.298,508.9
478.3294,31126.3
478.3869,259.5
478.4418,59.9
478.4443,59.1
478.6092,109.7
478.9025,94.5
478.9378,20135.4
479.0036,305.8
479.0705,19.8
479.2137,93
479.333,5132.2
479.5546,180.5
479.8535,313.4
479.9409,459.1
480.391,490.5
480.494,413.7
480.5316,729.5
480.6015,62.8
480.6644,92.4
480.9363,19.3
480.9525,2652
480.9804,314.2
481.0909,82.4
481.2377,18.6
481.3587,581.6
482.0137,87.3
482.0266,393.4
482.0479,169.9
482.1743,89.2
482.2833,31.2
482.3244,758.9
482.3619,211
482.4183,110.4
482.7022,373
483.2486,92655
483.5882,387.1
483.628,185.9
483.6578,198.9
484.0175,49.9
484.1913,403.2
484.252,16869.3
484.2726,53.1
484.6073,144.7
485.0546,549.8
485.2642,101030.5
485.3879,172
485.665,564.9
486.0301,581.1
486.2518,362.5
486.2675,23269.7
486.4546,105.4
486.4578,107
486.7986,259.4
486.8466,312.1
486.898,414.5
487.0339,82.2
487.176,64.1
487.2018,64.9
487.2799,53543.8
487.397,189
487.5983,22.2
487.6129,109.7
487.6921,571.3
488.0806,653.8
488.283,11733.4
488.3942,157.5
488.4263,309.9
488.5513,657.3
488.5988,362.5
488.7499,362.1
488.8944,365.6
489.0382,492.3
489.0865,71.7
489.1955,121.6
489.2553,295.2
489.3269,287.1
489.3598,27.6
489.3718,124.9
489.408,418.9
489.4254,107.7
489.4526,28.4
489.5005,51.4
489.5174,287.2
489.7444,229.4
489.8562,188.7
489.9573,785
490.0067,90.8
490.1846,233
490.2107,179.3
490.2914,2647.2
490.3107,105.7
490.3728,52.2
490.3981,67.3
490.5839,91
490.735,380.3
490.8964,160.2
490.9131,196.4
490.9973,47.2
491.1139,300.2
491.1809,19.8
492,132.9
492.0509,45.5
492.2221,232
492.3637,21.2
492.6433,81.5
492.69,126.1
492.9143,10824.2
493.1272,949.5
493.3442,460.8
493.4755,60.4
493.4798,60.3
493.8444,59.5
493.9178,429.6
494.0666,172.7
494.1661,565.1
494.2013,43.2
494.2259,17.8
494.3243,7662.6
494.6046,72
494.64,59.7
494.805,447.3
494.9118,3346.2
494.9681,158.5
495.2525,66.6
495.2856,335.8
495.4667,51.9
495.536,136.3
495.5813,91
496.239,182.4
496.3401,411766.3
496.67,142.9
496.9312,978.3
496.9434,788.4
497.3435,99592.5
497.4222,61.4
497.5874,547.2
497.7032,215.7
498.347,8320.8
498.523,520
498.9307,795.2
499.0428,127.7
499.2221,5091.7
499.2502,25.9
499.3483,667.7
499.8653,145.3
500.1651,375.7
500.2263,1035.3
500.2837,195.7
500.5908,259.4
500.6925,193.8
500.6958,184.6
500.7082,131.1
500.7347,498.6
500.858,103.6
500.9845,710.6
501.0101,156.2
501.2382,7126.2
501.3709,154.4
501.5897,354.6
501.6996,145.1
501.7781,130.7
501.9054,303.7
501.9256,465.2
501.934,150.8
502.044,112.5
502.1419,733.3
502.3287,8182
502.3912,59.8
502.7167,54.7
502.8918,438.6
502.9454,120.4
503.0487,784.5
503.0898,200.8
503.1084,231.8
503.179,182.1
503.2251,20.4
503.254,4605.8
503.3334,846.8
503.409,563.8
503.4502,813
503.7338,47
503.7492,28.1
503.7894,325.3
504.1522,181.9
504.2598,115.1
504.2892,159.6
504.3068,2497.2
504.3448,8139.8
504.6105,245.2
504.6337,1027.1
505.2323,598.1
505.5485,707.8
505.7147,194
505.7628,902.7
506.1229,331.1
506.3607,2872.7
506.4661,1141.2
506.5898,83.6
506.6158,23.7
506.6593,23.5
506.8908,610.4
507.0378,618.4
507.1428,225.8
507.2485,25337.1
507.4482,68.7
507.4758,111.7
507.5277,42.4
507.5432,20.3
507.5972,262.6
507.6251,784.6
508.2517,4542.7
508.3207,67
508.6048,202.4
508.7126,549.5
508.888,952
508.9207,372.4
508.9747,501.2
509.0039,438.5
509.1031,69.9
509.1818,881.3
509.1946,150.2
509.209,22.3
509.2639,9039.5
509.5293,98.7
509.9323,84.3
510.1993,68.9
510.2688,1019.1
510.2891,177.4
510.3089,25.6
510.3561,3589.1
510.5423,250.2
510.5768,86.1
510.642,79.4
510.7094,563.2
510.8156,150.5
510.9112,79.1
510.9475,47
511.125,85.5
511.3136,69.6
511.6211,645
511.6441,199.8
512.158,96.4
512.1754,19.1
512.2405,283.7
512.2583,411
512.2704,26.9
512.4345,69.8
512.5807,1105.1
512.6486,779.6
512.8302,310.1
512.8478,66.8
512.9084,17813.4
512.9517,19.9
512.9621,440.5
513.0913,63.4
513.7238,437.1
513.7525,17.1
513.787,353.7
513.8736,357
513.9116,752.8
514.143,112
514.5937,69.8
514.6586,922.4
514.9055,8234.4
514.9374,194.4
515.0227,817.5
515.0349,383.4
515.451,606.3
515.5419,737.9
515.9207,173.8
515.9385,350
516.0064,361.2
516.3066,18843.8
516.367,125.4
516.5546,561.3
516.6566,553.9
516.6892,18.5
516.7449,1046.6
516.7609,126.8
516.9022,544.3
516.9439,96.6
516.9569,229.4
517.096,86.5
517.1695,174.9
517.2775,93.2
517.3095,536.5
517.3707,118.1
517.4482,296.2
517.4639,295.3
517.4957,214
517.6177,137.5
517.7255,21.2
517.9828,107.9
517.9957,136.2
518.0584,22
518.2918,63.9
518.3221,677482.2
518.7421,19.9
518.9253,38695.2
518.9673,394.4
518.9923,27.8
519.3254,152696.7
519.4863,66.2
519.5445,236.9
519.9276,1131.8
520.329,16881.9
520.3401,109250.2
520.3741,79.9
520.5148,48.2
520.6821,583.7
520.8497,86.2
520.9225,20345.8
521.3301,1147.6
521.3434,30684.9
521.6909,689.5
521.7884,85
521.8597,21.8
521.9262,555.1
522.0554,196.7
522.3557,166190.5
522.4202,96.7
522.5134,21.5
522.6751,521.1
522.7728,31.6
522.9191,473.5
522.9374,7898.1
523.2229,1381
523.2667,114.4
523.3591,43378.1
523.4031,269.5
523.5783,386.4
523.9877,62.3
524.0215,746.8
524.0338,119.9
524.1456,60.9
524.2225,130.3
524.3293,96.8
524.3714,108245.4
524.5405,401.1
524.7846,112.1
524.8642,144.2
524.9336,1525.8
525.2091,568
525.2732,255.6
525.3747,24434.8
525.4366,83
525.7008,62.2
525.7244,603.4
525.7787,627.2
526.3299,2408.2
526.4911,222.5
526.6324,201.4
526.7029,361.4
526.8256,197.8
526.9205,536.6
527.0988,783.3
527.1485,46.4
527.251,119.6
527.2935,888.4
527.3311,87.7
527.4096,324.9
527.9216,24.8
527.9753,24.6
528.2166,86.3
528.4906,58.7
528.6863,749.6
528.7613,17.6
528.8822,8598.8
528.9539,1601.8
528.998,242.5
529.502,240.2
529.5296,22.6
529.9091,649.4
530.093,134.5
530.3056,81.5
530.3587,1394.4
530.7297,390.9
530.8616,24.6
530.8794,4747.4
530.9032,232.8
530.9494,348.8
531.093,713.3
531.2492,3358.4
531.2924,509.6
531.3264,121.1
531.4273,112.5
531.5065,836.4
531.5694,192.5
531.7352,54.7
531.8195,307.9
532.0274,383.7
532.0935,83.3
532.2419,361
532.2508,683.9
532.281,3863.2
532.338,9179.5
532.395,129
532.4442,806.9
532.675,101.1
532.9656,912.7
533.0669,74.8
533.2304,85.8
533.3397,746.7
533.3987,66.6
533.4219,389.6
533.8483,815.5
533.9195,22.7
533.9538,58.3
534.2288,122.3
534.2756,63.8
534.2961,195288.5
534.3169,392.4
534.5998,113.8
534.8991,24709.5
534.9389,322.5
535.2672,462.6
535.2994,44819.6
535.3755,131.3
535.4013,532.8
535.6819,306.8
535.8568,184.2
535.9025,547.4
535.9738,616.1
536.0549,325.4
536.0899,118.4
536.1336,579.1
536.1528,230
536.2065,549.8
536.2944,10229.2
536.5404,192.7
536.8336,338.6
536.8963,14564.3
536.9454,70.4
536.9657,107.1
536.9827,198.8
537.0378,60.1
537.297,974.6
537.3753,111.4
537.539,150.9
537.7595,581.9
538.085,83.6
538.1062,341.7
538.2952,127
538.3785,135.8
538.6942,24
538.72,107.9
538.7872,63.7
538.894,1403.6
538.9107,1636.1
538.9312,1647.6
538.983,1637.7
539.0851,99.7
539.207,616.7
539.5283,450.9
539.933,98.8
540.3045,787.6
540.5221,100.1
540.9066,474.5
541.1246,73.7
541.1443,375.9
541.1821,51.8
541.2046,285.5
541.309,263.9
541.3691,61.3
541.7643,51.9
542.1353,697.2
542.3221,178321.1
542.4646,691.5
542.6584,423.7
542.743,362.3
542.9634,21.3
543.0272,113.1
543.2087,260.6
543.2653,405.2
543.3254,45092.9
543.3626,135.7
543.5397,16.9
543.9107,572
544.2371,717.4
544.2731,65.5
544.3379,263341.1
544.3854,198.2
544.411,540.4
544.4876,167.5
544.4939,249.4
544.4988,213.8
544.6308,21.3
544.6564,419.8
544.6809,203.8
544.8053,18.5
544.9291,2286.9
545.1307,170
545.2165,186.9
545.3414,67965.6
545.358,18.6
545.6296,81.4
546.0316,82
546.3534,157150.5
546.4346,48.6
546.5084,98
546.6808,67.3
546.7173,65.2
546.7583,137.1
546.8536,1192.9
546.8821,739
547.0261,125.2
547.2376,499.5
547.2628,609.4
547.3568,37716.3
547.5627,145.9
547.7508,254.7
547.8172,698.7
548.2745,946.2
548.3118,1387.6
548.3313,330.7
548.3595,2919.9
548.8947,101.8
548.9413,876.7
548.9895,100
549.0364,572.8
549.3198,136.4
550.3177,499.2
550.7456,131
550.8734,5297.7
550.9274,60.6
551.1955,46.3
551.3736,136.1
551.6066,709.3
551.8125,346.8
551.9121,75.6
552.3298,66.8
552.495,884.7
552.8705,2974.4
552.9704,820.5
552.9988,24.9
553.2032,668.7
553.5087,22.6
553.527,59.9
553.5314,60.5
553.5685,243.5
553.6107,192.7
553.75,71.9
554.2566,152.2
554.6661,403
554.7746,24.9
554.9261,406.7
554.943,626.9
555.1243,227.9
555.2171,110.2
555.3752,697.4
555.3961,23.8
555.6939,126
555.8698,313.7
556.7925,72.7
557.4922,173.9
557.5541,96.4
557.9176,73.8
557.9578,150.1
558.0883,367.6
558.1985,168.5
558.2611,95.6
558.296,54056.8
558.4244,244.1
558.6254,72.8
558.7271,18.6
558.7933,91.5
558.998,135.4
559.0481,371.3
559.1882,66.3
559.2994,12739.9
559.3608,82.3
559.6954,106.6
559.8245,93.8
559.9138,54.2
560.0455,245.3
560.2946,1378.6
560.3117,71306.4
560.5978,180.3
561.0807,124.7
561.1944,734.3
561.2883,19.6
561.3148,16047.2
561.4139,1338.1
561.521,74.5
561.6784,125.4
561.9642,262
562.1944,66.7
562.3274,36829.8
562.3477,699
562.398,59.5
563.1771,277.8
563.2057,228.5
563.2229,237.6
563.3025,129.3
563.3311,8494.7
563.3722,503
563.4717,188.8
563.5444,80.9
563.6486,73.9
563.8226,93.3
563.9662,75.7
564.0912,127.3
564.3074,1347.1
564.5925,25.1
564.634,144.9
564.6782,416
564.9046,747.2
565.1836,348.2
565.5085,476
565.5257,569.6
565.7165,223.3
566.3222,56911.1
566.3547,247.9
566.4916,339.9
566.648,91.2
566.8489,159.5
566.9645,1046.4
567.1733,59.3
567.3258,12696.6
567.3647,82.6
567.4713,102.4
567.5582,362
567.6674,195.5
567.849,69.7
568.2799,63.2
568.3381,19134.5
568.5285,475.8
568.6013,139
568.9862,642
569.0418,84.4
569.3137,51.9
569.341,2332.8
569.5314,557.8
569.663,188.2
569.9815,100.7
570.1255,286.6
570.2213,133.5
570.2601,715.3
570.2894,427.1
570.4354,74.3
570.6038,219.8
570.8671,8102.9
571.0351,1675
571.0592,1724.4
571.397,230.5
571.7016,559.6
571.7938,129.9
571.8727,158.8
571.9232,114.8
571.9764,54.4
572.2285,75.5
572.3687,903.5
572.3987,542.1
572.5222,279.2
572.8183,54.4
572.8636,6042
572.9896,56.2
573.0191,69.6
573.1909,137
573.4484,88.7
573.6382,133.1
573.8228,98.4
573.8524,277.3
573.8628,72.6
573.8936,84.4
573.9278,433.4
573.9803,236.7
574.135,20.9
574.2631,354.1
574.2835,47.4
574.7285,63.9
574.7665,373.3
574.9596,169.5
574.9735,181.2
575.0035,106.6
575.1943,347.2
575.3738,125.1
575.4156,242.6
575.4206,223.9
575.5026,70.1
575.706,388.4
576.0114,240.2
576.1237,782
576.1764,51.1
576.2805,10450.9
576.5073,180.5
576.8842,11714.3
576.9882,61.9
577.2352,24.2
577.284,1340.6
577.4276,72.7
577.5198,808.9
577.6746,21.2
577.8886,464.2
578.0227,64.6
578.2778,1875.2
578.5063,752.3
578.7398,103.9
578.8811,10154.2
579.0179,1255.4
579.281,790.3
579.3371,172.4
579.4401,120.6
579.8753,123.9
579.8887,62.2
580.0325,866.6
580.0847,845.2
580.1623,25.2
580.2621,63.1
580.292,849.7
580.4208,311.3
580.46,792.7
580.719,360.3
580.7417,703.1
580.8514,57.6
580.8784,1738.3
580.8956,1859.4
581.0868,288.3
581.156,214.2
581.5224,780.3
581.7937,85
581.8515,280.8
582.0265,555
582.1021,58.4
582.2389,157.3
582.2959,14485.8
582.3242,94.9
582.348,49.8
582.3653,29.5
582.3716,23.4
582.3867,351.4
582.4043,487.7
582.4189,178.9
582.4301,26.8
582.4576,1172.3
582.4865,850.2
582.5043,355.8
582.5595,442.4
582.6138,51.8
582.6199,98.5
582.623,94.7
582.6389,18.6
582.8934,1607.8
583.0037,184.9
583.1206,169.9
583.2998,3833
583.4427,95.6
583.4638,149.7
583.5095,674.4
583.5325,611.9
583.8413,455
583.8557,73.8
583.8977,128
583.9653,115.6
584.0315,458
584.1135,20.5
584.2739,157
584.3125,3855.1
584.5906,19.4
584.6442,428.3
584.6931,51.9
585.1739,148.8
585.2712,2042.5
585.7,182.1
585.9175,292.2
585.9902,54.7
586.1909,590.9
586.3097,5790.1
586.5018,91.9
586.5403,118.4
586.5716,327.1
586.7294,328.7
586.8417,1920.5
586.8841,377.5
586.9131,582.9
586.9525,190.2
587.2266,578.1
587.2935,380.9
587.3748,757.8
587.9548,84.3
588.3162,776.6
588.3644,776.3
588.4779,382.2
588.8377,1729.6
588.9101,2342.2
588.9372,170.3
589.2264,175.9
589.9016,80.2
590.2316,62
590.2445,142
590.3224,10316.8
590.4053,193.3
590.4402,64.9
590.8344,499.9
590.8494,781.5
590.893,81.3
590.9255,634.2
591.3273,1081.2
591.3455,64.1
591.5328,114.3
591.5494,24.6
591.6043,60.1
591.6752,613
591.8073,196.5
591.8405,451.2
592.2544,2133.1
592.3948,114.6
592.5947,172.9
592.8272,578.9
592.858,8484.1
593.0484,240.7
593.1316,380.9
593.7113,666.1
593.8584,839.7
594.0573,152
594.1944,610.1
594.2744,100.6
594.3771,893.9
594.6103,19.8
594.6202,66
594.8549,9413.2
594.9717,81.3
594.9896,97.4
595.1532,108.6
595.5245,688.4
595.6207,72.3
595.711,753.8
595.8601,71.2
595.9365,428.4
596.0321,238.5
596.5318,90.1
596.5932,76.6
596.7175,191.4
596.7478,65.2
596.8522,1844.4
596.8704,1112
596.9647,53.9
597.0475,268.3
597.4513,2960.1
597.4863,3315.3
597.8667,185.8
597.9131,45.2
597.9988,97.3
598.2865,582.2
598.4615,956
598.4903,809.8
598.53,21.5
598.6607,878.5
598.7704,44.4
598.8681,1165.5
598.9375,827.5
599.0226,52.7
599.4656,1886.3
599.5039,458.2
599.8936,24
600.0235,797.9
600.1979,165.3
600.28,829
600.3047,23
600.4566,128
600.6711,68.9
600.8255,1034.4
601.0065,353
601.224,261.4
601.5193,28.6
601.5745,214.5
601.735,394.3
602.0651,121.5
602.0847,324.3
602.2962,2405.3
602.9372,161.4
603.258,652.8
603.294,20
603.4901,123.1
603.5362,30
603.7146,321.8
604.0133,642.1
604.149,25.7
604.1875,131.7
604.2283,209.2
604.2868,649.1
604.3137,1254.8
604.5386,121.6
604.7384,48.2
604.8894,116.3
605.2261,144.9
605.258,427.3
605.3195,436.6
605.5277,138.8
605.829,761.3
606.0679,844.8
606.1048,136.7
606.2016,49
606.2961,1861.8
606.7004,155.7
606.7845,200.8
607.1604,1523.1
607.1705,2020.9
607.2511,61.3
607.3035,427.1
607.4711,135.4
608.1198,104.8
608.1593,200.3
608.1628,197.2
608.1697,122.4
608.4255,130.8
608.5555,19
608.5912,404.1
608.7986,19.7
608.8133,19.7
608.8313,1670.1
609.012,98
609.0172,100.5
609.0513,84.9
609.1483,68
609.5661,71.2
609.6684,168.4
609.7873,108.9
609.9447,357.9
610.0118,76.9
610.106,65.6
610.3703,826.5
610.4746,605.5
610.4973,59.9
610.5302,608.6
610.6923,618.2
610.8285,2190.3
611.0741,871.3
611.1685,63.9
611.3178,724
611.3594,63.9
611.3867,663.9
612.1368,353.8
612.2913,208.6
612.4042,91.8
612.4207,661.5
612.626,198.5
612.7151,51.5
612.8468,499.9
612.9616,48
613.621,317.8
613.753,23.8
613.8217,616.3
614.1868,79.2
614.7222,66.2
615.0737,481.4
615.1113,83.6
615.2,760.6
615.2465,88.4
615.4916,79.4
615.7101,213.7
615.9084,103.7
615.9508,97.5
616.3748,480.4
617.1554,139.4
617.4758,3816
617.5,75
617.6503,671.1
617.7395,92
618.2572,74.4
618.3435,105.8
618.5732,742.8
619.0757,25.8
619.1601,82.3
619.4356,102.5
619.4914,7007.5
619.8943,267.5
619.9799,915.9
620.2909,108.6
620.3548,166.6
620.4934,1095.8
620.5112,74.5
620.5443,192.6
620.6328,71.5
620.67,69.2
620.8575,544.1
620.9508,188.4
620.9943,49.2
621.1857,59.6
621.436,223.8
621.4439,414.8
621.4859,2039.8
621.4994,768.4
621.6189,236.5
621.6458,63.7
621.7016,186.2
621.7243,71.5
621.8199,84
621.8775,74.6
621.9482,327
621.9956,531.8
622.3521,291.9
622.4915,506.7
622.6423,829
623.0751,219.7
623.1363,25447.7
623.3411,95.8
623.4651,826.8
623.5035,28.6
623.7799,134.9
624.1399,3837.7
624.4304,641.8
624.4744,193.6
624.5042,205.5
624.8021,419.7
625.1404,417.6
625.2619,77.8
625.4353,135.2
625.4858,1278.1
625.7548,146
625.7729,89.9
626.1851,452.6
627.1295,62.4
627.1872,163.6
627.2158,316.2
627.2365,74
627.3177,641.6
627.458,153.5
627.487,91.4
627.5361,389
627.8619,291.3
627.9752,356.3
628.2057,31
628.3171,130
628.4268,371.4
628.5115,439.3
628.5384,29.8
628.8284,100.2
628.8582,199.5
629.0577,60.5
629.1531,42861.8
629.4356,141.1
629.5439,354.4
629.9843,724.9
630.0951,56.2
630.1568,7294
631.0537,579
631.1288,979.1
631.1596,446.6
631.7298,698.7
631.7488,109.4
631.8827,132.1
632.1338,84.9
632.6222,534.3
632.6624,81.6
632.8927,20.5
632.9606,75.6
633.1983,71.2
633.3332,151.3
633.3972,360.5
633.8028,70.7
633.9652,676.8
634.0297,699.4
634.0555,193
634.2569,415.6
634.8432,3304
634.9939,89.3
635.0766,371
635.265,147.4
635.2984,135.9
635.3187,51.7
635.3341,594.3
635.4642,246.6
635.9682,168
636.4247,323.9
636.8398,3586.4
636.8613,102.7
636.9575,55.4
637.0203,76.5
637.0996,178.7
637.1215,658.4
637.1581,379.8
637.1942,214.9
637.7062,111.8
637.7557,412.7
637.8736,25.2
638.1132,667.4
638.1362,25.9
638.1796,588.2
638.3633,158.7
638.697,145.7
638.8351,1957.1
638.9658,508.9
638.9905,235.3
639.1157,638.5
639.2398,60.9
639.3053,208.7
639.7158,214.1
640.0402,67.8
640.4141,278.9
640.4581,29.3
640.6348,23.5
640.8396,104.9
640.8522,899.6
640.9183,45.6
641.0633,205
641.2449,155
641.2838,81.9
641.4566,152.7
641.7011,91.6
642.2028,736.9
642.4172,46.8
642.6333,70
642.7681,533.2
642.9345,364.9
642.9675,118.4
643.3008,197.8
643.5402,29.9
643.5517,73.2
643.732,149.4
643.9203,478.6
643.947,177.2
644.2795,80.8
644.3029,74.8
644.3233,394.6
645.072,17.5
645.118,18949.9
645.322,58.2
645.4606,709.7
645.4956,134.2
645.5363,19
645.6419,309
645.7341,24.4
646.0505,77.4
646.1221,3129.2
646.3547,1353
646.4278,1133.4
646.4598,232.6
646.7987,409.8
646.8682,1088.5
646.9286,380
646.9517,343.5
647.0944,1904.5
647.118,58.1
647.3375,861.4
647.4561,693.5
647.7775,721.3
647.8909,635.7
647.9743,51.6
648.152,335
648.3836,1052.8
648.4152,729.9
648.4234,799.4
648.4309,857.8
648.9636,149.7
649.078,150
649.1124,77.1
649.8096,86.3
649.9315,390
650.4193,125.5
650.4395,3003.5
650.6106,21.5
650.7079,118.8
650.7241,120.9
650.7834,97.1
650.8171,2319.7
650.9798,424.9
651.135,62521.8
651.1624,685.1
651.3202,710.1
651.3386,218.4
651.381,53.8
651.419,63.9
651.4836,363.2
652.0083,92.6
652.1385,12516.3
652.8131,4401.7
652.8435,58.3
653.0815,316.5
653.1111,1548.7
653.1407,983.1
653.3106,244.4
653.3387,58.4
653.5059,579.6
653.664,659.1
654.0587,18.4
654.114,180.8
654.2872,190.7
654.4889,111.6
654.5338,296.9
654.5492,692.9
654.6034,174.7
654.6491,86
654.8112,1593
654.9228,347.9
655.125,112.7
655.1692,91.3
655.3625,63.6
655.6515,95.4
655.7,70.3
656.3389,73.5
656.5652,537.7
656.6451,45.2
656.749,216.3
657.0161,638
657.3772,21.4
657.3939,744.8
657.4386,24.3
657.4617,558.7
657.6384,90.3
657.8655,22.4
658.5517,98.4
658.6355,312.1
658.6955,97.5
658.8368,939.5
658.8542,78.6
658.9654,81.8
659.0942,491.1
659.1816,75.3
659.7629,353
660.0186,551.7
660.0823,148.3
660.1338,57.9
660.288,53.9
660.3939,734.3
660.4045,629.2
660.4327,839.4
660.4992,69.4
660.6588,99
661.083,9070.1
661.2344,332.4
661.4247,207.2
661.4686,1158.3
661.5148,109.7
661.7734,661
662.0874,452
662.1735,182.4
663.0394,390.9
663.1189,856.4
663.187,82.8
663.4575,108
664.1528,137.8
664.2326,57.1
664.4674,1615.4
664.5596,528.4
664.6925,22.9
665.074,62.9
665.2943,93.4
665.8724,70
666.3275,696.4
666.485,874
666.7935,322.4
666.9046,545.1
666.9266,126.1
667.0326,59.2
667.0997,33081.8
667.1512,131.9
667.4591,216.6
667.5066,114.2
667.547,69.2
668.0248,53.1
668.1037,5293.4
668.2544,132.2
668.3719,573.1
668.7877,452.8
668.8994,76.5
669.0747,608.8
669.09,166.8
669.1025,160.7
669.4496,830.4
669.691,589.7
669.9584,96.9
670.1889,665
670.3051,84.5
670.6744,237.7
670.7815,328.8
670.8192,883.4
671.5891,76.9
671.6294,104.5
672.2486,174
672.3189,83.4
672.4212,2057.9
672.4936,49.6
672.7481,78.5
673.117,89437.8
673.1761,58.4
673.2263,771
673.3562,1413.1
673.4301,574.7
673.6514,50.4
673.721,109.4
673.758,201.9
673.9054,100.8
674.1207,17043.6
674.1729,142.2
674.2652,122.4
674.4679,373.7
674.7747,269.9
674.9807,103.1
675.0932,1334.9
675.1216,1803.1
675.5435,5639.8
675.72,67.8
675.8253,76.1
675.8855,277.4
676.0458,624.5
676.075,168.4
676.0975,65.2
676.3236,349.9
676.5477,965.8
676.7733,112.4
676.8453,19.4
677.2613,510.5
677.6548,232.8
677.8937,49.2
678.4464,56.2
678.4669,504.2
678.6107,23
679.1666,61.4
679.2023,163.7
679.4989,322.9
679.6892,129.8
679.8713,86.7
680.0185,359.2
680.1559,542.6
680.3968,67.1
680.4456,82.6
680.7033,130.8
681.2087,120.8
681.2329,89.8
681.7204,356.2
681.7825,112.1
681.8905,609
682.0657,911.4
682.8646,385.8
683.0392,869.7
683.0659,6349
683.4724,135.9
683.9236,172.1
684.0814,59.2
684.2174,327.8
684.2919,101.3
684.4525,851.6
685.437,3872.1
685.5153,389.2
685.6202,83.7
685.6392,86.1
685.675,693.3
685.7721,66.6
685.9096,109.8
686.0555,52.9
686.1027,836.7
686.4386,769.3
687.0527,82.8
687.1075,420.5
687.7024,214.8
688.4167,1514.4
688.5227,559.9
688.723,20.2
688.8059,22
688.9923,204.6
689.0512,127.8
689.0814,25653.1
689.091,25383.9
689.2734,117.8
689.4914,52
689.5599,2292
689.9741,349
690.0956,3754.6
690.417,377.8
690.5634,1179.8
690.6111,549.8
690.6479,114.4
690.8787,86
691.0596,184
691.0872,244.5
691.205,142.7
691.3502,50
691.4511,177.5
691.5103,655.7
691.5638,586.7
691.5986,61.8
691.8028,389.2
692.0837,43
692.1971,81.9
692.7626,121.4
692.8027,499.1
692.8892,20.2
693.192,56.3
693.2196,361.5
693.4757,405.1
693.5017,23.9
693.6299,22.5
693.7029,89.7
694.7449,620.4
694.7975,786.5
694.8708,695.4
694.9056,148.4
694.9292,120.2
695.0991,65582.4
695.4585,60.7
695.5479,21.8
695.6239,82.7
695.7341,54.4
695.9322,124.4
696.1025,13693.4
696.1412,154.2
696.2767,46.8
696.4241,463
696.458,19.1
696.7201,264.3
697.0745,605
697.1045,490.9
697.2605,88.9
697.526,10289.4
697.5995,368.1
697.7254,96.6
697.8805,19.2
698.0276,139.2
698.1886,281.3
698.3309,87.8
698.5291,1340.6
699.1036,258.5
699.9441,130.1
700.2629,404.4
700.5099,72.6
700.8151,307.5
700.9457,619.7
701.0756,478.4
701.3263,21.2
701.4119,134.7
701.56,23986.4
701.7705,185.2
701.7902,156
701.9507,847.7
702.3422,2078.1
702.5636,10174.7
702.8949,314.3
703.0302,184.3
703.5197,98.7
703.5757,69520.1
703.9226,18.3
703.9419,468.2
704.0458,304.7
704.1545,206
704.3604,194.7
704.4471,1942.1
704.579,25585.6
704.9997,135.4
705.0567,4188.5
705.1043,221.3
705.2961,166.1
705.3577,192
705.5818,2359.2
705.8704,239.9
705.9433,58
705.9956,223.2
706.0454,796
706.0746,158.3
706.0821,213.9
706.0881,224.2
706.1921,190.3
706.5416,39.9
706.5637,1031.3
706.5923,166.8
707.0366,59.3
707.0554,201.6
707.1323,105.1
707.2916,245
707.3454,111.9
707.5588,368.2
707.7529,287.1
708.3512,166.5
708.4129,359.9
708.4782,361.3
708.6651,657.9
709.0526,638.2
709.3738,606
709.4144,78
709.5436,108.4
709.6821,386.2
709.8061,90.9
710.3556,81.1
710.6605,109
710.685,686
710.7722,750.1
710.8601,167.8
711.0646,16989.7
711.0737,23410.6
711.1715,216.5
711.2012,20.4
711.5439,2787.9
711.6301,90.4
711.9736,322.7
712.0028,483.3
712.0772,1772
712.1449,76.3
712.2367,157.8
712.2611,378.2
712.4113,552.9
712.5483,51
712.7502,140.6
712.7726,343.4
712.9555,89.8
713.0502,127.8
713.0814,708.6
713.1205,267.3
713.2122,198.3
713.3524,389.6
713.499,436.3
713.6669,776.9
713.7024,284.8
713.8315,21.6
713.9819,642.4
714.3694,22.8
714.5681,201.1
714.7778,606.5
714.8542,57.4
715.4885,175.1
715.6114,22.6
715.878,364.2
715.9632,55.6
716.3834,253.7
716.6994,208.1
716.7767,50.8
716.8311,20.3
717.041,52.3
717.0808,34823.4
717.7083,180.6
717.9422,823.2
718.0846,4835.7
718.2122,102.8
718.3602,67.9
718.4599,297.6
718.7946,98.6
718.9235,550.7
719.062,96.8
719.2801,68.9
719.4657,998.2
719.5536,198.1
719.8232,111.5
721.0869,83
721.3728,650.4
721.4788,29949.2
721.5675,235.3
721.6832,73.7
721.8158,686.5
721.8628,62
721.9186,262.9
722.0268,331.1
722.0742,774.4
722.2281,915.4
722.3781,22.5
722.3919,142.3
722.482,9545.3
722.566,136.7
723.1447,195.8
723.4087,90.6
723.4284,360.8
723.4945,12777.2
723.5417,28217.3
724.0803,116.6
724.3797,138.3
724.4926,420.2
724.5449,9267.5
724.9414,122.4
725.0689,193
725.1629,361.1
725.3641,136.4
725.4261,74.9
725.5576,67251
726.0284,146
726.068,80.8
726.0819,59.5
726.5333,718.4
726.5611,25804.4
726.646,797.3
726.7489,334
727.038,2996.5
727.1329,93.6
727.5658,1027.7
728.1064,21.2
728.1616,49.9
728.2634,96.7
728.3293,133
728.4877,18.8
728.5456,49
729.0267,67.5
729.2081,137
729.2832,1259.5
729.4261,346.5
729.4725,676.8
729.5038,107.3
729.5913,7817.7
729.6222,24
730.1239,111.6
730.1971,21.3
730.2917,49.7
730.5411,1709.6
730.594,2567.4
730.7444,140.2
730.8328,188.1
731.2268,271.2
731.3584,91.2
731.4904,351.4
731.6067,3746.4
731.7551,120.3
731.826,178
731.8583,371.5
732.0686,642.1
732.1062,48
732.5287,63.7
732.5544,24396.6
732.6106,63.8
732.8036,712.9
732.9343,1079.8
733.0444,8374.5
733.0564,13511.6
733.4129,171.5
733.5579,8127.2
733.7532,444.5
733.8422,137.8
733.8997,1914.6
734.0569,975.8
734.0888,47.7
734.4009,24.8
734.4905,72.7
734.5214,673.8
734.5708,5014.1
734.9614,24
734.9809,105.5
735.057,64.3
735.2853,325.8
735.3643,436.7
735.399,37.7
735.5725,1178.8
735.7447,789.3
735.9373,110.9
735.9556,613.8
735.9709,572.9
736.0539,690.7
736.3894,66.1
736.4508,85.5
737.3042,192.8
737.4081,50.7
737.4532,4088.8
738.0523,51
738.0714,352.7
738.1456,215
738.2301,639.7
738.5727,372.2
738.6665,532.3
738.9433,681.5
738.9795,225.9
739.0237,50
739.0629,21373.4
739.314,91
739.4555,916.5
739.4747,296.2
739.5165,2574.8
739.6299,671.1
739.838,130.4
740.0667,2129.4
740.2104,609
740.5221,1079.3
740.5804,95.4
740.733,49.7
740.7569,374.8
741.0445,81.3
741.4796,461.4
741.5057,49.6
741.5318,8636.8
741.7765,181.4
741.9651,95.2
742.5346,1830.4
742.5558,96.4
742.575,1134.7
742.6351,236.7
743.0164,168.6
743.2149,48.4
743.5773,1004.1
743.7138,21.4
743.829,696.4
743.8839,57
743.9545,742.6
744.1735,227.5
744.5084,229.5
744.5564,965.9
744.591,2375.4
744.6958,426.2
744.719,122.6
745.0304,165.7
745.1369,306.6
745.4788,20107.8
745.5247,162.1
745.5485,81.7
745.5913,258.2
745.6357,70.9
745.6681,344.4
745.9216,170
746.482,5172.8
746.5704,1497.3
746.6065,1761.1
747.049,507.5
747.071,120.9
747.3769,90.5
747.4947,7390.8
747.5538,474.8
747.5815,19.2
747.6124,41.3
747.7449,17.9
748.5001,829
748.8998,330
748.9248,184.8
748.9616,170.3
749.0336,1519.9
749.1136,382.4
749.144,137
749.2139,133.2
749.5124,369.2
749.5583,150
750.0222,790.8
750.2961,163.2
750.3959,190.6
750.6334,511.8
750.7795,128.6
750.9712,133.6
751.0294,160.1
751.5737,5130.6
751.7293,120
751.7869,400.2
751.8099,800.9
751.8896,356.9
752.015,89.1
752.0512,109.5
752.3832,517.6
752.5211,3982.6
752.5777,1536.6
752.6573,51.5
752.6882,731.1
753.489,36.1
753.5251,1076.1
753.557,142.1
753.589,2195.6
753.6097,64.6
754.083,106.2
754.4123,124.3
754.5367,23220.8
754.5937,821.4
754.6803,220.2
754.8227,141.5
755.0284,7111
755.0384,9391.1
755.202,56.7
755.5397,7531.3
755.759,71.7
755.9934,653.4
756.0231,148.5
756.0415,152.3
756.0791,56.4
756.2594,48.3
756.5545,30965.9
756.7751,831.7
757.053,230.1
757.4317,500.6
757.5578,8549.3
757.623,1433.4
757.779,589.3
757.8836,618.8
757.9491,106.6
758.2818,39.6
758.5703,660857.4
758.6275,29.7
758.6695,417.5
759.2424,79
759.5737,297822.1
759.6392,1163.4
759.6699,17.1
759.7114,691.3
759.736,122
759.8251,24.9
760.2252,1051
760.2504,73.4
760.5114,261.5
760.5867,318311.5
761.0446,10295.6
761.0919,555.8
761.125,374.2
761.1789,408.8
761.2617,2443.4
761.452,2388
761.5248,73.4
761.5896,155913.5
761.6369,374.9
761.9066,415.1
762.0481,422.2
762.1261,26.4
762.3364,273.3
762.3689,77.9
762.4402,63.9
762.4549,839.9
762.4802,81
762.5242,777.2
762.5924,33979.5
762.6322,228.7
762.6653,201.6
763.0476,711.2
763.3152,57.8
763.34,207.1
763.471,953.4
763.5962,3148.8
763.6821,30
764.0179,707.2
764.0929,370.2
764.2291,775.7
764.5582,1832.3
765.0786,98.8
765.2032,69.2
765.2426,80.1
765.2862,99.5
765.4831,421.5
765.5606,617.4
765.7237,31.9
765.9018,525.3
766.2826,153.8
766.4057,294.4
766.5749,17363.9
766.7548,66
766.9966,356.1
767.4387,366.5
767.5232,177.2
767.5803,5581.2
767.9606,46.6
768.1992,770.3
768.4656,583.2
768.554,1235.3
768.5913,23806.9
768.7746,141.4
768.9932,75.8
769.0636,65.5
769.089,553.9
769.3466,341.5
769.4796,3414.4
769.5943,10664.3
770.0382,112.3
770.0937,302.7
770.483,1868.9
770.511,1072.9
770.569,932.5
770.5941,1040.5
770.6038,989.1
770.7379,721.7
770.9924,5216.1
771.3465,1152.5
771.493,444
771.5121,715.9
771.5718,22.9
771.5894,669.2
771.6089,156.4
771.8027,80
772.1604,116.2
772.1803,87.6
772.2854,54.7
772.5862,7689.6
772.6213,204.4
773.0099,937.9
773.0851,49.8
773.3954,875.4
773.5089,535.4
773.5914,1906.9
773.6458,55.2
773.6742,712.4
773.7913,237.4
774.0031,76.6
774.092,80.2
774.6011,1714.6
774.8573,341.6
774.8933,618.6
775.0962,214.3
775.608,40.2
775.702,293
775.761,53.5
776.0232,897.2
776.0964,659.9
776.3439,880.9
776.3694,372.9
776.6285,98.5
776.8602,143.9
776.8888,783.6
777.0102,4841
777.3117,404.6
777.3981,457.2
778.0072,412.8
778.1736,144.1
778.1994,146.2
778.537,20011.4
778.8014,288.9
779.1423,74.2
779.5406,6576.2
779.5853,576.6
780.011,423.2
780.1241,204.5
780.2434,678.3
780.4169,348.9
780.5524,539087.6
780.5913,125.2
780.7941,93.2
781.3577,208.6
781.4243,97.7
781.5559,234794.5
781.7057,29.4
781.7764,90.4
782.1442,121.8
782.2603,666.3
782.3468,213.4
782.3887,912.6
782.5698,613545.5
782.902,105.6
782.9144,264.6
782.9578,87
783.027,11953.4
783.0617,1397.8
783.5731,288039.7
783.6736,175.2
783.8751,61.4
783.932,76
784.03,521.9
784.2225,21
784.5869,218349.6
784.6348,1808.9
785.1065,727.4
785.5899,110864.1
785.6542,3219.2
785.9281,172.6
786.439,20.9
786.6023,189821.3
786.6547,287.6
787.0127,128.8
787.1184,364.3
787.1548,47.2
787.4205,639.2
787.5454,584.2
787.6052,97599.2
787.6712,1326
787.8357,67.4
788.1215,498.4
788.1972,778.7
788.2611,458.4
788.3563,95.5
788.5565,7032
788.6055,12725.5
788.6197,9589.9
788.6769,123.2
789.5027,82
789.5596,2304.3
789.622,7563.8
789.6621,63.7
789.9309,718.4
790.0472,639
790.0838,123.7
790.101,64.5
790.4733,484.7
790.5738,12310.2
790.6554,175
790.7623,730.5
791.0535,943.2
791.1014,149.1
791.5758,4895.3
791.9637,670.1
792.5906,9918.9
792.9835,564.6
793.2181,831.5
793.2658,186.8
793.571,150.4
793.5943,2096.7
793.8066,156.5
793.8473,33.4
793.9266,155.7
793.9819,406.7
794.3685,120.3
794.4419,476.9
794.4942,180.6
794.5103,911.1
794.5693,4223.4
794.6068,31312.3
794.6335,1695.7
794.7324,117.4
794.939,572.2
794.9679,69.3
795.0025,303.6
795.1887,235.8
795.3061,97.3
795.3609,126.3
795.57,1179.7
795.6104,13865.7
795.6719,57
795.8056,189.5
795.9545,722.3
795.9864,142.3
796.0411,116.1
796.1309,662.6
796.5263,107819.3
796.5857,3797.1
796.6239,1344.2
796.6557,488.1
797.3654,637
797.4489,685.7
797.5297,43190
797.5886,38.2
797.6246,48.7
797.7687,183.4
798.1782,203.3
798.2377,204.2
798.4696,61.6
798.5049,260.4
798.5428,46403.3
798.9997,4311.7
799.2605,103.9
799.5452,19057.4
799.5725,340.2
799.6698,998.1
799.7708,69.5
800.0174,165.6
800.4691,92.8
800.5313,347
800.5517,366.4
800.6749,167.2
800.7801,705.3
801.367,306.1
801.544,964.1
801.814,462.2
801.8782,421.3
802.0794,670.4
802.1321,45.5
802.1788,138.5
802.4615,979.6
802.5365,29410.2
802.7134,629.4
803.54,11900.5
803.793,115.1
803.8316,132
804.0611,655.3
804.3769,121.7
804.4673,792.9
804.5525,316495.2
804.7727,20.8
805.2845,21.2
805.5556,148530.7
805.7285,430
805.7634,224.6
806.1477,211
806.5696,273718.2
806.6218,766.5
806.6423,211.8
806.6569,203.3
807.0578,303.3
807.097,150.7
807.286,374.2
807.379,221.7
807.4728,128.8
807.5727,133065.8
807.6397,2308.2
807.7673,730.1
807.7977,128.6
807.9467,362.1
808.0149,698.3
808.5855,197232.7
808.787,183.1
808.9625,203.3
809.5886,89627.5
810.157,91.1
810.3232,371.4
810.4132,194.9
810.6025,117843.5
810.7053,205.3
810.8028,79.2
810.912,594.9
810.9786,126.1
811.6053,60150.9
811.6698,8544.2
811.7665,119.7
811.976,22.7
812.1991,69.8
812.62,19006.8
812.6734,1333.1
813.2749,62.4
813.6222,7892.9
813.6858,7767.3
814.1404,164
814.3731,54.4
814.5153,72.8
814.5735,861.4
814.6224,75.2
814.689,2108.4
814.7371,400.4
814.9707,34.2
814.9845,40.4
815.1315,77
815.2267,698.1
815.3304,150.4
815.7368,67.6
815.8726,221.5
815.9648,425
816.589,18955.3
816.9031,326.4
817.0713,290.2
817.0953,129.2
817.1733,93.1
817.5923,2779.5
818.1927,847.6
818.4494,31
818.5101,3835.5
818.5676,1481.9
818.6055,2081.9
818.9717,202.3
819.17,92.2
819.2019,325.7
819.6162,123.6
819.6617,806.9
819.7761,61.1
820.5264,71581.3
820.5809,594.6
820.6238,38.5
820.6872,244.7
821.5296,27904.9
821.6509,51.6
822.0778,62.8
822.2657,704.2
822.5428,30712.1
822.5942,123.1
822.6428,758.6
822.6788,236.6
822.8287,450.5
822.9111,162.3
823.1408,107.5
823.2555,185.2
823.5453,13537.8
824.1448,276
824.2784,57.9
824.5582,23291.5
824.5836,945.2
824.7203,281.1
824.8046,19
825.2696,801.8
825.5609,7451.1
826.2731,52.8
826.2842,74
826.2913,68.3
826.3682,177.1
826.5321,299.9
826.5686,417
826.75,445.8
826.9278,45.7
827.576,94.7
827.7519,568.4
827.7957,420.1
827.9182,1015.8
827.9795,27.5
828.097,393.3
828.4803,701.3
828.5524,104505.4
829.4784,119.2
829.5558,48113.4
829.6039,393.7
829.63,879.3
829.7002,42.4
829.8211,937.2
829.9448,709.9
830.0008,2994.5
830.0695,44.2
830.5692,62030.3
830.9677,318
831.1955,397.8
831.2659,91.7
831.4552,234.8
831.5718,27585.6
831.8668,69.9
832.0131,173
832.0611,885.8
832.3654,123
832.5846,76273.9
832.7717,643.6
832.9551,497.9
833.0185,882.7
833.5876,40152.4
833.6509,801.5
834.5471,85
834.6021,26657.8
834.9719,540.5
835.035,19
835.1494,52.2
835.4868,1284.4
835.5255,68.6
835.6054,12355.2
835.6679,1026.3
835.7435,1096.6
835.7603,871.6
836.0142,304.6
836.1727,89
836.3594,152
836.6183,749
836.6739,165.9
836.8198,287.8
837.1886,78.2
837.2845,295.7
837.6185,1266.9
839.1638,120.5
839.2469,683
839.3179,57.8
839.5534,134
839.846,82
840.1323,21.6
840.5818,471.8
840.7069,203.5
840.7706,138
840.7964,168.5
840.9875,408
841.6471,154.2
841.7806,960.7
841.8354,171
842.0541,253
842.2896,155.3
842.3416,1077.5
842.8257,136.8
843.1622,128.9
843.3804,53.8
843.4847,97.8
843.8198,21.1
843.8995,162.6
844.0444,60.4
844.1646,1013.5
844.5262,19025.7
845.1725,50.8
845.5303,8809.9
845.7842,328.8
846.1519,410.7
846.543,9848.7
846.5763,812.3
846.7296,55.7
847.0834,87.2
847.1944,926.2
847.2555,106.7
847.5578,852.2
847.9955,700.5
848.2747,146.6
848.4024,316.5
848.5571,10612.5
848.9658,169.8
849.0542,630.1
849.5598,3950.3
849.6782,333.8
850.5451,88.1
850.5728,350.2
850.7017,82
850.823,23
850.9626,913.4
851.0571,345.4
851.1472,1828.4
851.3993,117
851.4603,19
851.5021,185.7
851.7931,62
851.8128,311.9
852.077,584.1
852.1932,375.2
852.2673,622.7
852.3929,191.5
852.5698,75.2
852.7198,677.9
853.1089,816.5
853.8308,354.5
854.4644,71.4
854.5682,2161.8
854.8052,277.9
855.1463,94
855.4687,625.3
855.8435,81.4
856.4092,674.6
856.4924,338.2
856.5837,9115.2
856.8128,196.4
857.1267,186.3
857.4113,497.6
857.5863,1092.1
857.8344,394.9
859.1802,206.8
859.7033,663
859.7404,107.1
860.8642,123
861.066,168.7
861.2081,848.9
861.3365,18
861.6706,24.9
861.7094,77.4
861.9488,223.9
862.144,130
862.2542,702.9
862.4873,118.9
862.5108,757.9
862.5691,643
862.5965,94
862.621,18.3
862.6993,1398.7
862.7423,141.1
862.791,465.2
863.0984,60.1
863.3121,628.6
863.6511,699.6
863.7288,80.4
864.1335,49.5
864.3748,528
864.9628,167.6
865.787,403.1
865.89,310.1
865.9944,189.3
866.1693,665.6
866.2827,600.4
866.6601,132.2
866.9932,224.2
867.0598,21
867.2723,563.6
867.6663,83.4
867.8322,122.1
867.9211,368.3
868.0236,30.4
868.5978,377.3
868.7053,17.8
868.8866,142.4
869.2343,253.1
869.4288,77.2
869.5053,1704.6
869.637,289.9
869.7392,288.8
869.7647,858.2
869.8209,959.2
869.8562,954.9
869.9252,1236.3
869.9726,2429.6
870.0216,3860.8
870.0651,3396.9
870.0864,4747
870.1173,1841.3
870.1556,2292.2
870.2176,1516.8
870.2555,1253.1
870.3033,1141.7
870.4901,2284.2
870.6773,77.3
870.8593,157.9
871.0754,74.2
871.1481,69.6
871.4316,122
871.4947,20.7
871.8101,82.3
872.1045,190.4
872.1858,728.9
872.2915,123.9
872.3141,790
872.3574,71.8
872.539,1040.8
872.5631,1084.7
873.2912,69.5
874.1127,222.4
874.424,1715.6
875.0437,348.9
875.0876,145.4
875.2944,19.6
875.4766,391.6
875.8181,1275
875.9914,118.2
876.6548,44.1
877.5053,219.6
877.5787,79.6
877.6134,672.1
877.8629,289
877.9863,584.8
878.1135,625.9
878.5098,854.9
878.5782,18.2
878.6792,331.4
878.7327,27.9
878.8857,843
879.2931,78
879.3659,81.9
879.4774,528.5
879.5792,21.8
879.7002,63.2
879.9528,879.6
880.1024,113.2
880.2347,365
880.8711,49.8
881.0477,261.3
881.1025,94.3
881.1328,71.6
881.2334,249.5
881.2491,488.7
881.2565,446.9
881.4195,76
881.6213,669.7
881.7875,203
881.9441,764.8
882.1355,698.8
882.3957,493.3
882.5183,47.4
882.5981,58.7
882.7641,70.3
883.2064,148.8
883.281,129.6
883.3727,884.5
884.9186,19.8
885.2977,826
885.7277,95.9
885.8527,457.5
886.6632,94.9
886.6912,454
886.7644,591.3
886.8156,120.1
886.8625,633.6
887.0496,252.4
887.2389,112.8
887.316,257.9
888.2259,244.1
888.4195,353.2
888.487,216.4
888.5259,204.2
889.2464,100.9
889.3287,380.7
889.4175,647.8
889.6265,3724.5
889.9597,712
890.6641,259.6
890.9202,25.2
891.2092,125.4
891.2331,710.5
891.8378,61.1
892.3651,469
893.1317,106.4
893.5173,56.1
893.7836,413.6
893.8536,204.5
894.0309,565.5
894.3311,138.6
894.6164,142
894.882,43.9
895.0288,209.9
895.309,69.3
895.5229,254.8
895.8105,63.4
895.9542,306.4
896.1413,112.8
896.5659,648.1
896.782,70.5
897.2479,50.1
897.3143,79.1
897.5876,46.4
897.6287,69.6
897.9745,1091.1
898.138,635.9
898.2212,1379.8
898.4765,437.3
898.5547,21
898.6798,161.6
898.7238,1434.6
898.8292,626.8
898.8546,406.1
900.1563,334.4
900.3671,679.8
900.5859,456.6
900.7084,324.7
900.7458,150.8
900.8517,115.6
901.0508,76.4
901.3011,157.4
901.6745,61.7
901.835,147.8
902.0474,211.3
903.2846,212.5
903.3177,315.3
904.1559,253.4
904.3135,304.9
904.5607,358.6
904.7337,532.3
904.8306,76.5
905.0374,51.5
905.3336,315.5
905.8043,654.2
905.9015,46.5
906.3789,518.2
906.4512,119.5
906.5744,80.6
906.695,185
906.9419,351.2
907.9752,22.9
908.0986,244.8
908.3398,536.7
908.4399,68.5
909.0699,65.6
910.5799,703.6
910.6027,114.3
910.9735,566.8
911.1533,749.3
911.632,898.6
912.1333,594.6
912.2184,2475.4
912.6192,400.5
912.9212,701.9
913.2015,527.7
913.4143,2335.6
913.7883,56.9
913.8597,37
914.6447,594.6
914.7738,1131.9
914.8628,576.6
915.2344,381.8
915.272,923.4
915.6744,1489.2
915.7962,1994
915.968,69.5
916.3914,18.6
916.5959,663.7
916.6488,584.1
917.6844,224.6
917.7178,91.7
917.9467,1275.4
917.9653,821.4
917.9882,87.2
918.3827,58.3
918.4652,590.1
918.7526,73
919.294,633.9
919.4911,931.3
919.5421,102
920.1834,31.1
920.3146,147.7
920.482,121.7
920.6616,889.8
920.871,173.8
921.0243,273.6
921.2336,58.3
921.3672,190.3
921.5211,139.7
921.7737,134.1
922.2212,96.8
922.3487,359.5
922.4598,61.1
922.5739,99.6
922.6993,378.5
922.9003,748.7
922.9158,583
923.0011,181.3
923.2238,1709.2
923.3653,563.1
923.4353,77.3
924.0558,109.5
924.1757,1490.9
924.3491,89.1
924.3918,25
924.6292,930.5
925.1246,700.3
925.4311,75.8
925.6196,490.2
925.997,632.3
926.4727,19.9
926.559,1609
927.3223,62.3
927.5573,179
927.6322,369.4
927.7642,89.5
928.2372,83.2
928.3013,520.4
928.4317,614.7
928.6938,19.8
928.7191,55.1
929.0882,961
929.1598,73.5
929.6393,156.6
929.8427,50
929.9386,49.9
930.0177,22.1
930.0799,125.5
930.2907,742.1
930.325,1156.1
930.8307,968.1
930.9171,599
931.0383,101.5
931.195,405.4
931.3891,120.7
931.4991,561.2
931.7811,165.1
931.8679,1370.5
934.4838,1876.6
935.1236,1331.4
935.7125,147.3
936.1125,511
938.0728,414.6
938.1654,89.6
938.5267,398.9
938.9076,170.4
938.9585,209.1
939.9139,799.7
940.5685,52.8
940.8476,350
941.1126,1516.7
941.7101,2609.7
941.8828,1095
941.9461,48.6
942.0408,95.1
942.3261,835
942.5537,606.1
942.6453,119.9
942.9743,594.7
943.0067,814.7
943.2256,71.9
943.6883,380.7
944.0028,66.7
944.1025,1023.9
944.2922,112.6
944.401,452.7
944.7751,102.3
944.8693,97.7
944.9505,88
945.0974,81.7
945.643,241.1
946.0778,721.7
946.5466,80.7
946.8244,1032.3
946.9661,684.8
947.1435,46.9
947.7047,88.5
947.8817,73.1
948.0778,615.6
948.1437,1172.1
948.2257,48.7
948.3219,2595.5
948.5104,632.5
948.7068,152.2
949.2954,59.8
949.6796,335.1
949.823,206.8
950.096,420.1
950.1489,530.2
950.1846,130.2
950.3691,284.1
950.6618,622.7
951.0174,632.8
951.1386,24.8
952.1271,68.5
952.2782,194.7
952.6589,118.5
952.79,49.3
953.366,343.2
953.5442,693.8
953.6496,38.7
953.683,68.7
953.7275,594.7
953.9708,148.6
954.0495,75
954.8449,1624.8
955.0311,961.7
955.2764,741.6
956.0278,811
956.787,106
956.8185,177.3
956.8868,69.9
956.9387,210.2
957.1691,910
957.194,891.4
957.2107,1054.3
957.32,56.9
957.6824,416.6
958.0767,159.2
959.1382,294
959.4964,549.9
959.547,369.8
959.731,129.3
959.9024,89.5
959.9777,20.7
960.0314,68.1
960.0832,857.7
960.5238,1527.1
960.604,159
960.9377,101.4
961.4901,82.4
961.5692,768.1
961.6053,648.1
961.8354,40.2
962.0726,184.3
962.3345,62.8
962.7853,70.4
962.8689,646.8
963.1512,882
963.2611,52.8
963.6487,71.1
964.0154,115.1
964.1816,810.9
964.7328,422.1
964.9489,60.7
965.0677,79.3
965.1359,484
965.2078,773.8
965.3324,494.4
965.3812,464.7
965.7027,337.7
965.7484,762.9
965.8095,192.2
966.5111,735.2
967.2513,18.8
967.458,1183.2
967.9323,50.3
968.6694,83.2
968.7971,707.3
968.9137,216
969.3704,1885.3
969.6177,63.4
969.8754,654.4
970.0475,465.4
970.6736,630.9
971.3119,680.3
971.3874,1223.5
971.6261,729.3
971.9402,219.4
972.046,124.7
972.3473,524.9
972.4672,1275.5
973.0656,369.9
973.6098,214
974.1497,256.2
974.313,853.6
975.0889,1588.3
975.1638,29.2
975.5404,46.7
975.7644,265.6
975.8284,826.2
976.0246,120
976.3624,553
976.7331,94.2
976.8667,984.3
976.9049,71.3
977.5485,180
977.8084,1937.8
978.065,897.6
978.9738,443.4
979.0014,277.7
979.0633,531.1
979.4199,461.2
979.6249,659.7
979.6612,1275.7
979.8357,762.8
980.5068,95.8
981.0127,1100.2
981.5407,68.8
982.4168,18.1
982.5694,131.8
983.1047,65.6
983.1855,153.6
983.2419,51.4
983.3074,699.6
983.4724,173.7
983.5382,1727.6
983.684,808.8
983.8129,74.3
983.9614,760.2
984.0116,161.5
984.1161,1019.7
984.2837,145.3
984.3431,216.4
984.7172,184.2
984.9227,657.8
984.9977,86.7
985.3292,778.2
985.9026,256.9
986.0612,87.4
986.2165,220.4
986.3456,18.4
986.4789,1224.6
986.6418,392.9
986.739,247.4
986.8981,57.9
987.5951,434.3
987.7512,605.5
987.9139,156.2
987.9529,795.4
988.0421,704.3
988.2691,324.2
988.4699,113.4
988.5793,124.2
988.8312,57
988.9919,291.2
989.161,848.2
989.3116,344.8
989.6898,685.7
989.8383,69.9
989.9231,60
989.9958,61
991.1567,786.7
991.2634,77.9
991.5258,114.9
991.6682,722.1
991.8187,724.2
992.0198,115.9
992.0649,52.5
992.4251,93.8
992.6456,397.2
993.6009,52
993.6713,58.9
993.7069,604.6
993.9288,128
994.1701,209.6
994.2634,292.7
994.5089,690.8
994.6792,861.3
995.1543,610.6
995.2678,632.5
995.3347,205.4
995.8953,636.7
996.2652,20
996.3634,67.5
996.7302,585.3
996.9126,1092.3
997.5962,696.7
997.8291,46.2
998.0692,84
998.1534,349.1
998.792,53.7
999.5755,77
999.8833,75.1
999.9527,341.5
