SPECTRUM - MS,
654.RAW,
FTMS + p ESI Full ms [50.00-1000.00],
Scan #: 1-40,
RT: 0.01-1.97,
AV: 40,
m/z,Intensity

50.0007,164.1
50.0107,160.9
50.0254,643.4
50.048,86.5
50.056,603
50.0638,123.7
50.0645,428
50.0733,284.8
50.0742,220.1
50.0782,617.8
50.1131,87.9
50.1136,668.3
50.1317,63.8
50.1419,46.7
50.1463,44
50.1521,15.7
50.1566,49.9
50.1837,17.2
50.1978,59.7
50.2132,211.2
50.2259,55.6
50.2386,688.5
50.2491,78.4
50.2542,74.6
50.2735,88.9
50.291,199.4
50.3298,527.5
50.3303,197.8
50.3318,127.8
50.3492,589.8
50.3644,15.6
50.3739,112.1
50.3806,53.2
50.3918,64.8
50.4012,61.2
50.4054,809.1
50.4206,639.3
50.4249,168.8
50.4268,152.2
50.439,17.1
50.4628,54.6
50.4685,74.3
50.4807,15.9
50.4831,183.6
50.4846,453
50.4973,18
50.5006,17.4
50.5019,197.3
50.5026,691.5
50.5299,448.5
50.5541,296.9
50.5682,212.3
50.5698,212.7
50.595,383.6
50.5963,127.2
50.6092,42.8
50.6123,273.6
50.6208,46.4
50.6233,640.8
50.6301,269.3
50.6423,17.7
50.6598,63.1
50.6672,184.1
50.6919,47.2
50.6951,174.3
50.6955,63.9
50.7085,143.5
50.7183,144.8
50.7205,810.2
50.757,97.9
50.7621,49.3
50.7646,581.3
50.7726,19.7
50.7828,49.8
50.7872,189.7
50.822,82.9
50.8323,82.6
50.8408,676.5
50.8442,120.5
50.8896,38.1
50.9182,114.4
50.9199,115.8
50.9287,41.8
50.9499,498.3
50.9724,197.4
50.9787,182.1
50.9791,257.1
50.9826,75.2
50.9869,399.8
51.0035,410
51.0461,46
51.0483,751.4
51.0675,55.5
51.0792,888.1
51.0873,89.6
51.0881,46.5
51.0965,139.3
51.133,593.9
51.1521,55.9
51.1664,41.4
51.1846,91.7
51.1904,73.9
51.2052,42.6
51.2292,316.9
51.2315,297.7
51.2496,339
51.2502,166.6
51.2538,278.7
51.2673,58
51.2764,170.5
51.2775,617.9
51.2853,79.7
51.2996,107.3
51.3088,48.2
51.3369,411.4
51.3385,52.9
51.3453,85.7
51.3483,59
51.3809,230.1
51.3918,51.7
51.395,444.1
51.4007,203.4
51.4186,57.5
51.4347,42.5
51.4628,79.9
51.4643,46.3
51.4699,57.4
51.4806,173.7
51.486,141.8
51.4951,527.7
51.4982,43.3
51.503,38
51.5045,175.5
51.5067,569
51.523,184.4
51.5339,123.9
51.5603,51.8
51.5894,399.1
51.5907,46.1
51.5981,181.2
51.6126,69.2
51.619,19.3
51.6225,856.2
51.6269,247.3
51.6471,553.9
51.6613,53.2
51.6919,131.7
51.6942,66.4
51.698,139.7
51.7046,138
51.7084,145.5
51.713,388.5
51.7297,59.2
51.7397,148.3
51.7433,49.6
51.7564,117.6
51.7614,120
51.7747,569.5
51.8,511.9
51.8047,214.9
51.8094,127.8
51.8116,199.7
51.8214,60.7
51.8457,42.3
51.8482,108.2
51.8517,47.4
51.8569,268.3
51.8839,53.6
51.8886,258.8
51.8909,57.3
51.8986,60.7
51.9018,16.4
51.9069,18
51.9169,15.5
51.9264,160.8
51.9333,102.9
51.9411,361.9
51.9564,207.7
51.9653,202.1
51.9793,63
51.995,212.7
52.0057,139.4
52.0261,298.7
52.042,491.4
52.054,254.6
52.0564,292.8
52.0584,109.4
52.0688,703.9
52.0705,371.8
52.0709,192.1
52.0841,671.7
52.0942,67.8
52.1159,317.8
52.1217,18.4
52.1363,18.4
52.1393,110.5
52.1415,66.6
52.152,89.5
52.1527,96.3
52.1586,751.6
52.159,47.4
52.181,36.7
52.233,60.4
52.2423,58.1
52.2508,365.5
52.252,546.3
52.2598,90.1
52.2765,64.6
52.2993,157.1
52.3034,61.8
52.3039,85.9
52.3102,214.2
52.3338,657
52.3386,256.9
52.3456,37.1
52.3661,42.1
52.3749,384.4
52.3813,181.9
52.3856,52.1
52.386,406.2
52.3874,51
52.4217,105.7
52.4247,44.1
52.4465,176.1
52.4601,733.3
52.4784,855.3
52.4842,136.9
52.4911,350.7
52.4966,272
52.5022,229.4
52.5055,17.9
52.524,63.2
52.5245,80.8
52.5252,85.3
52.5316,16.2
52.5477,189
52.5503,655.5
52.5638,776.1
52.5766,551.9
52.582,99.3
52.5842,103.2
52.5974,314.9
52.601,369.7
52.6026,117.1
52.6038,63.7
52.6112,704.1
52.6121,59.5
52.6159,116.5
52.6219,45.5
52.6232,83
52.6278,51.7
52.6616,247.7
52.6632,168.9
52.6847,135.9
52.6929,107.3
52.6957,19.2
52.6988,287.7
52.7019,61
52.7356,276.8
52.7457,694.1
52.7486,54
52.7501,526.2
52.7588,56.6
52.7635,598.7
52.7691,108.9
52.7743,78.2
52.7783,82.8
52.7793,45.3
52.7866,44.2
52.7932,435.8
52.7939,558.3
52.795,1081.1
52.7955,2201.7
52.7965,2830.1
52.7973,1117.7
52.798,416
52.7987,266
52.7989,299.3
52.8002,135.9
52.8007,217.6
52.8011,199.9
52.803,254.8
52.8086,652.3
52.8174,485.3
52.8353,728.1
52.8474,335.3
52.868,823.7
52.8875,505.1
52.9374,187.3
52.9426,105.8
52.9507,327.4
52.955,389.9
52.965,50
52.9762,273.6
52.9786,377.8
52.9887,135
52.9996,695.1
53.0092,541.3
53.0215,267.1
53.0329,372.4
53.0539,73.1
53.0636,536.5
53.0722,59.7
53.092,168
53.1034,727.1
53.1287,183.8
53.1371,78.4
53.1373,88.9
53.139,203
53.14,398.8
53.1408,201.6
53.1452,374.6
53.1481,192.4
53.1535,99.8
53.1593,146.6
53.1652,248.4
53.1666,270.3
53.1695,41.5
53.1732,49.1
53.1807,63.6
53.2027,134.5
53.2535,35.7
53.2659,55.6
53.2755,17.5
53.2981,314.6
53.315,819
53.3271,690.1
53.3326,46.5
53.3654,60.9
53.3658,379.2
53.4113,89.8
53.4147,74.3
53.424,65.6
53.4342,245.7
53.4573,807
53.4665,224.1
53.468,16.8
53.4722,54.9
53.5033,44.5
53.5153,248
53.5168,41
53.5296,16.2
53.5395,56.2
53.5413,73.9
53.5603,98.1
53.5674,733.4
53.5917,18.5
53.5954,302.8
53.6006,203.1
53.6254,159
53.6309,342
53.6465,50.1
53.6589,715.8
53.6643,571.5
53.6724,684.8
53.6846,164.5
53.6928,48.1
53.7036,115.9
53.7209,82.4
53.7282,284.9
53.7306,700.3
53.7346,251.5
53.736,201.6
53.7404,81.6
53.7731,927
53.774,47.4
53.7795,93.1
53.7805,609
53.7827,113.1
53.7835,37.6
53.7932,315.4
53.8072,557.1
53.8189,117.3
53.8403,88
53.8416,633
53.862,43.3
53.8739,106.6
53.8779,82.5
53.8901,118.1
53.8991,354
53.9499,385
53.9617,41.8
53.9783,830.6
53.9902,178.1
53.9916,407.9
54.006,53.6
54.0069,550.8
54.0097,121.4
54.0203,112.2
54.0484,208.2
54.0643,101.9
54.0771,154.5
54.0786,62.3
54.0956,52.5
54.1011,63.4
54.1237,39.3
54.1365,657.9
54.1434,366.9
54.1482,296
54.1709,53.6
54.1936,75
54.1944,955.7
54.213,769.6
54.2136,44.4
54.2188,285.4
54.2293,44.9
54.242,84.2
54.2442,121
54.2615,203.8
54.2624,361
54.2631,667.1
54.2671,213.2
54.2863,149.3
54.2875,114.8
54.2897,127.2
54.3328,45.5
54.3465,397.6
54.3516,49
54.3617,43.8
54.3744,659.5
54.3763,526
54.3915,113.9
54.3984,560.9
54.4046,199.2
54.4063,15.9
54.4146,72.3
54.429,16.6
54.4665,50.6
54.4775,118.8
54.4876,180.8
54.4909,265.6
54.5059,85.2
54.5126,872.2
54.5319,92.7
54.5407,420.4
54.5744,17.4
54.5852,123
54.5991,762.5
54.6035,177.4
54.6329,59.2
54.6436,43.5
54.6598,89.5
54.6663,187.1
54.6746,86.5
54.6798,50.3
54.6927,70.8
54.695,71.3
54.714,16.2
54.7288,104.5
54.7488,35.2
54.7516,67.4
54.7797,46.4
54.8151,150.8
54.8211,69.5
54.8381,189.6
54.843,60.1
54.8442,278.1
54.8583,301.6
54.8645,185.3
54.8928,35.3
54.8966,32.2
54.9,159.5
54.9064,163.6
54.9237,173.5
54.9339,189.8
54.9503,44.8
54.9623,389.2
54.9876,385.5
54.9968,16.2
55.0043,55.5
55.0177,291.8
55.0762,491.8
55.0899,582.9
55.0965,64.5
55.1024,58.2
55.1214,83.9
55.1539,285.6
55.159,762.5
55.1643,795.9
55.1688,86.1
55.1725,16.3
55.1738,84.5
55.1843,568.5
55.1852,56.4
55.2024,320.9
55.2162,101
55.2198,17.7
55.2377,369.5
55.2495,303.2
55.2575,106.1
55.2743,376.6
55.2792,90.1
55.3157,115.8
55.3172,51.1
55.3239,707.6
55.3711,210.6
55.3759,564.2
55.3902,15.5
55.3961,239.9
55.3985,194.4
55.4031,358.1
55.4038,107
55.4311,387.3
55.4365,90.1
55.443,40.5
55.4678,93.6
55.507,157.8
55.5134,582.3
55.5231,634.5
55.5457,536.8
55.5478,161.4
55.5493,221.3
55.5632,104.6
55.5899,251.6
55.6061,344.7
55.6173,213.5
55.6211,44.8
55.6324,376
55.6542,41.4
55.6748,49.8
55.705,314.5
55.72,68.7
55.7301,222.1
55.7362,54.8
55.8104,723.4
55.8131,359.1
55.8249,275.5
55.8503,85.3
55.8806,205.6
55.9126,16.4
55.9245,218.9
55.9351,57.3
55.9484,64.9
55.9583,114.9
55.9773,51.3
55.984,136.1
55.9874,59.4
55.9891,139.1
56.028,151.7
56.029,162.9
56.0307,219
56.0405,18.5
56.0449,685.8
56.0491,139.6
56.0574,131
56.0621,323.2
56.0904,521.8
56.0951,256.5
56.0996,15.8
56.1119,218.4
56.1406,740.4
56.1469,56.6
56.1524,109.8
56.1943,490.1
56.1975,15.4
56.2013,254.1
56.2295,176.3
56.2621,238.4
56.2755,164.1
56.2796,873.7
56.2827,66.7
56.2849,56
56.2921,83.7
56.3115,325.7
56.3272,383.9
56.3303,374.2
56.367,767.5
56.3729,54.7
56.3759,440.6
56.4082,404.3
56.4203,53.2
56.4255,555
56.4406,43.8
56.4577,78.6
56.4679,344.1
56.4801,198
56.4835,491
56.4881,584.2
56.4893,45.3
56.4993,211
56.5172,65.5
56.5255,297.1
56.54,290.2
56.5439,354.4
56.5459,57.6
56.5539,131.7
56.5742,170.7
56.5782,92
56.6292,154.6
56.6483,92.3
56.6617,430.6
56.6729,108
56.7058,279.3
56.7144,593
56.724,565.4
56.753,95.4
56.7603,261.9
56.7739,65.4
56.7934,275.5
56.8051,133.7
56.8102,110.9
56.8118,455.7
56.8246,579
56.845,227.5
56.8705,19.4
56.8844,456.3
56.8909,43.6
56.8913,56.8
56.8925,386.4
56.8971,276.4
56.916,78.2
56.9292,278.1
56.9355,136.7
56.9672,206.5
56.9766,395.8
56.9901,188.6
56.9955,178
57.0027,273.1
57.0261,229.8
57.0291,280.7
57.048,48.1
57.0511,737.8
57.0593,44.6
57.0685,108.3
57.1041,424.8
57.1144,18
57.1399,216.4
57.1444,73.6
57.1481,17.1
57.1549,741.2
57.1689,128.4
57.1841,749.4
57.2013,19.9
57.2096,19.8
57.2145,45.4
57.2193,59.9
57.2262,49
57.23,159.4
57.2612,421.3
57.2676,51.5
57.2684,351.2
57.287,146.8
57.3183,269.9
57.3265,15.9
57.3445,444
57.3632,221.2
57.3763,209
57.4125,397.3
57.4129,139.2
57.4159,91
57.4215,15.6
57.4482,363.4
57.4542,255.8
57.4547,191.2
57.4755,132.9
57.4908,93.1
57.4989,17.6
57.5101,675.6
57.5268,42.3
57.5391,372.7
57.5515,312.2
57.5819,119
57.6214,57.1
57.6319,697.6
57.6533,95.3
57.6658,73.4
57.6662,101.8
57.672,44.4
57.6764,79
57.6854,82.6
57.6873,79.5
57.7073,346.6
57.7141,148.6
57.7412,69.4
57.7421,53.9
57.7479,436.8
57.749,46.5
57.7536,322.4
57.796,94.7
57.823,74.8
57.8255,108.3
57.8337,171.6
57.8401,15.6
57.8651,19.5
57.8856,53.1
57.8929,198
57.9074,321
57.9314,53.2
57.9392,94.5
57.9402,99.5
57.9526,61.8
57.9594,40.9
57.9609,18.7
57.9664,278.7
57.9667,91.8
57.9744,17.5
57.9767,142.5
57.9837,18.2
57.9917,582.5
58.0134,40.1
58.0148,63.5
58.0149,65.7
58.0188,212.7
58.0191,50.3
58.0324,16.3
58.0447,163.2
58.053,45.3
58.054,122.8
58.0654,198.3
58.0764,70.8
58.0782,220.9
58.0954,614.5
58.0984,81.8
58.1072,46.7
58.1215,56.8
58.1329,392.8
58.1409,441.2
58.1471,55.5
58.1619,152.8
58.1919,109.2
58.1991,16.1
58.2042,288.2
58.2154,91.2
58.2185,747.6
58.2223,87.3
58.225,14
58.2284,47.3
58.229,284.3
58.2367,660.9
58.2401,157.1
58.2513,181.3
58.258,81.7
58.2771,327.4
58.2892,92
58.293,148.8
58.3154,15.4
58.3164,16.1
58.32,15.1
58.3283,407.5
58.3608,368.1
58.3681,69.1
58.3837,73.6
58.3872,54
58.3921,53.7
58.394,16.4
58.4008,14.4
58.4201,152.7
58.4449,47.6
58.4616,713.1
58.4804,551.7
58.4898,68.6
58.5025,280.1
58.5036,179.3
58.5168,80.9
58.5238,113.7
58.5432,200.1
58.5679,419.8
58.5739,189.6
58.5854,87
58.5859,80.8
58.5922,292.2
58.596,106.9
58.5969,366.1
58.6069,16.2
58.6113,116.2
58.6167,599.9
58.6182,43.1
58.6598,470.7
58.6638,90.4
58.6741,537
58.6777,36
58.697,310.4
58.6981,52.8
58.7258,760.8
58.7272,16.8
58.7305,128.9
58.7326,648.4
58.7451,47.3
58.7459,402.2
58.753,89.7
58.7631,78.5
58.8183,316.3
58.829,51.3
58.8452,367.3
58.8498,16.1
58.8603,158
58.8749,69.7
58.8758,76.7
58.8868,826.7
58.8873,41.7
58.8904,498.3
58.9185,193.4
58.9195,91.2
58.9244,66.4
58.9559,566.9
58.9567,690.6
58.9701,257.9
58.971,158.8
58.9731,15.8
58.9736,218.5
58.9885,50.7
58.9922,41.4
59.0038,596.8
59.0252,45.3
59.0269,430.1
59.0458,49.8
59.0478,49.3
59.0509,315.1
59.0604,52.4
59.063,275
59.0638,516.4
59.0801,16.1
59.088,760.6
59.0892,48.3
59.1161,44.8
59.1303,47.8
59.1322,136.3
59.133,16.6
59.1744,49.6
59.1798,198.3
59.1997,78
59.201,91.3
59.2129,17.5
59.2236,137.2
59.2868,50.6
59.3125,15.9
59.3224,76.5
59.3676,84.2
59.3744,68.7
59.3773,73.3
59.3915,102.9
59.3958,23.4
59.4049,14.6
59.4503,592.2
59.4545,214.7
59.4612,585.2
59.465,222.7
59.4831,586.4
59.4877,57.1
59.514,16.2
59.53,17.4
59.541,57.2
59.545,240.9
59.5758,60.6
59.5763,419.5
59.6183,263.3
59.6202,51.5
59.6516,748.4
59.6523,285.8
59.6662,170.3
59.6837,275.7
59.6871,81.3
59.6896,460.7
59.7255,157
59.7293,195
59.7339,380.5
59.7532,144.7
59.7574,51.7
59.762,108.8
59.7703,81.3
59.781,121.7
59.7951,622
59.8089,211.9
59.8195,290.6
59.8206,901
59.8345,562.4
59.8442,922.6
59.8587,58.8
59.8637,309.6
59.9143,145
59.9414,295.9
59.9498,126.3
59.9527,780.8
59.953,117.9
59.9585,130.4
59.9618,97.6
60.0032,80.4
60.0042,111.5
60.0319,76.8
60.0335,122.7
60.042,136.6
60.044,57
60.0471,60.3
60.066,45.5
60.0677,268.4
60.0692,395.8
60.0721,416.4
60.08,16.2
60.0837,389.9
60.0969,43.9
60.1022,384
60.1057,71.7
60.1401,52.6
60.1563,620.5
60.1576,739.5
60.163,45.1
60.2077,98.1
60.2202,58.4
60.2253,48.8
60.2492,61
60.2851,17.9
60.2892,213.7
60.2941,647.7
60.2949,45.2
60.2965,719.9
60.315,48.8
60.3194,99.4
60.3229,102.3
60.3281,161.6
60.335,282
60.3457,215.2
60.375,627.3
60.3892,149.7
60.3939,59.9
60.4172,47.3
60.4255,57.3
60.4352,162.9
60.4587,837.7
60.4624,126.7
60.4716,46.7
60.4871,637.9
60.5248,115.8
60.553,85.4
60.564,69.5
60.5686,136.7
60.6052,315.3
60.6097,47.7
60.6217,93
60.6239,39.8
60.6358,240.2
60.6413,52.3
60.6448,680
60.6573,71.6
60.6613,98.1
60.6727,40.8
60.6883,52
60.7109,157.5
60.7179,166.2
60.725,64.2
60.7259,48.6
60.7292,16.7
60.7302,271.4
60.7357,441
60.7418,86.8
60.7432,46.1
60.77,862.5
60.7739,286.2
60.7979,416.9
60.8039,153.5
60.8045,215.2
60.8084,60.8
60.8178,296
60.8474,52
60.8631,53.6
60.8659,112
60.8668,65.5
60.8878,53.6
60.9048,148.5
60.9123,16.7
60.9144,675.3
60.9202,85.6
60.9249,358.5
60.9296,489.3
60.9413,44.9
60.9445,172.8
60.948,49.2
60.9621,204.8
60.9743,56.2
60.9873,66.2
60.9908,77.5
60.9946,402
60.9995,587.8
60.9999,84.2
61.0015,115.8
61.0173,74.5
61.0314,456.6
61.0383,15.8
61.0774,739.9
61.0806,127
61.0871,215.7
61.106,18.8
61.1074,195.1
61.1265,462.1
61.1392,183.5
61.1471,124.3
61.1771,230.7
61.1793,371.7
61.181,58.2
61.1821,801.9
61.1837,171
61.1931,85.8
61.2023,145
61.2123,45.1
61.2278,42.6
61.2377,232.9
61.2849,47.1
61.3027,480.2
61.3102,255.5
61.3161,121
61.3185,148.2
61.3233,53.8
61.3326,312.6
61.3471,239.2
61.348,39.8
61.3517,552.4
61.3572,48.8
61.3606,700.2
61.3717,201.7
61.3842,125.3
61.3876,277.1
61.4085,70
61.4096,246.8
61.4201,74.6
61.431,51.6
61.4378,67.1
61.4389,61.6
61.4674,596.1
61.4701,20.7
61.4782,134.1
61.4783,181.2
61.4785,108.7
61.4907,591.5
61.5034,198.5
61.5129,84.1
61.5235,221.4
61.5244,130.1
61.5267,156
61.5278,261.2
61.5334,60
61.5343,215.3
61.568,39.8
61.5872,237.9
61.594,369.6
61.5989,175.4
61.6252,742.2
61.632,318.9
61.6358,116.6
61.6506,642.9
61.6555,206.1
61.6557,768.1
61.6607,129.2
61.6648,58
61.6891,50.3
61.6968,587.7
61.7046,890.9
61.705,53.4
61.7325,202.2
61.7396,179.2
61.7789,123.5
61.8069,438.1
61.8186,230.6
61.8215,109.8
61.8344,19.8
61.8381,138.7
61.8684,127.6
61.8759,117.6
61.8807,826.4
61.8836,741.7
61.9108,76.1
61.9335,442.2
61.9345,421.9
62.0013,64.9
62.0076,87
62.015,68.4
62.0306,639
62.0398,107
62.0487,430.5
62.0784,16.4
62.1133,73
62.1137,617.1
62.1224,69.8
62.1257,459.8
62.132,106
62.154,424
62.1582,99.9
62.1599,133.6
62.1607,892
62.1711,53
62.1764,69.8
62.201,175.9
62.2368,355.1
62.2445,196.1
62.275,72.9
62.2921,50.7
62.3259,281.9
62.3279,182.1
62.3312,190.9
62.3629,815.4
62.3864,255.3
62.3892,82.7
62.3959,637.7
62.4096,961.2
62.4199,452.3
62.426,119.2
62.4322,147.2
62.4429,53.4
62.4694,601.4
62.4929,319.5
62.5002,680.7
62.5122,90.3
62.521,62
62.5315,19.6
62.5349,54.2
62.584,156.5
62.5886,708.1
62.5925,18
62.6136,41.9
62.6159,106.8
62.6672,401.1
62.6738,331.8
62.6936,21.1
62.7015,632.6
62.7055,46.3
62.7506,58.1
62.7605,82.7
62.8086,585.5
62.8256,142.1
62.8577,395
62.8674,74.4
62.884,714
62.8973,89
62.9158,94.8
62.9196,43.9
62.9322,312.1
62.9478,157.8
62.9781,47.1
62.9909,148.1
62.9965,185.9
63.0287,57.1
63.0292,160.2
63.0324,93.8
63.0634,810.2
63.0794,84.6
63.0807,359.3
63.0867,450.1
63.0919,77.7
63.1152,129.8
63.1218,58.9
63.1406,60.9
63.1837,55.1
63.189,109.9
63.1944,300.5
63.1972,17.5
63.2053,704.5
63.235,100.6
63.2473,476.9
63.2581,149
63.2644,857.2
63.2656,727.3
63.2669,832.3
63.3014,343.4
63.3182,136.8
63.3201,144.5
63.3223,497.9
63.3268,116.5
63.3304,406.7
63.3382,54
63.3418,201.8
63.3586,704.4
63.3595,729.3
63.3749,93.5
63.3921,103.7
63.4048,49.7
63.4061,122.3
63.4569,49.4
63.4594,179.3
63.4742,65.1
63.4788,204.5
63.4859,87.2
63.5836,405.6
63.5883,76.6
63.5931,656.7
63.6313,43.1
63.6338,203.4
63.638,182.6
63.7044,62.2
63.7058,133.2
63.7461,72.3
63.7599,585
63.7614,82.6
63.7625,44.8
63.7827,52.6
63.816,89.2
63.8238,165.6
63.8287,368.7
63.8633,142.5
63.87,707.3
63.8838,1045.4
63.8922,192.5
63.9015,309.5
63.9111,466.4
63.915,70.2
63.9209,54.3
63.9252,93.6
63.9275,87.1
63.9516,151
63.9718,61.8
63.9974,223.4
64.0068,66.9
64.0112,150.9
64.0296,54.5
64.0414,666.4
64.0443,204.8
64.0648,340.2
64.0825,18.9
64.1059,138.3
64.1075,176.5
64.1118,221.2
64.1137,57.3
64.1191,580.1
64.1215,67.2
64.1414,18.7
64.147,84.8
64.1526,379.7
64.1574,287.9
64.1752,255.4
64.1798,129.5
64.1841,715.6
64.1925,83.9
64.2006,70
64.2116,103.1
64.22,144.5
64.2384,76.5
64.249,47.8
64.2651,523.1
64.3308,55.5
64.3618,80.7
64.3817,95.1
64.4262,54.1
64.4273,79.5
64.4335,88.6
64.4476,54
64.4527,46.4
64.4544,119.5
64.4719,140.8
64.4912,47.8
64.4925,51.7
64.5075,64.2
64.5226,703.3
64.5238,19.2
64.5345,194.6
64.5842,226.5
64.5954,137
64.6233,368
64.6237,17.3
64.637,754.1
64.6606,58
64.6718,47.6
64.6906,49.7
64.7077,149.2
64.7148,17.6
64.7556,68.6
64.7607,365.9
64.7648,244.6
64.7741,389.6
64.7801,309.4
64.7875,42.2
64.793,155.8
64.816,183
64.8332,692.7
64.85,621.4
64.8515,200.3
64.8518,213.8
64.8536,798.8
64.8551,929.2
64.8637,53.8
64.8735,481.2
64.8749,463.2
64.8855,807.4
64.9122,241.2
64.9197,64.8
64.9215,49.9
64.9289,51
64.9531,461.1
64.9706,432.5
64.9736,668.4
64.9807,587.3
64.9916,78.3
64.9961,97.1
65.0263,18.4
65.034,97
65.0528,408.7
65.0562,45.3
65.0609,98.5
65.0631,165.4
65.0662,505.3
65.074,58.7
65.0939,21.4
65.1144,265.2
65.1195,118.4
65.1213,76.3
65.1561,58.1
65.1577,64.5
65.1742,74.1
65.1807,60.5
65.2014,255.6
65.2047,554.5
65.2176,95.1
65.2369,84.8
65.2438,288.7
65.2457,247
65.2797,129.7
65.3026,67
65.3091,731.8
65.3184,636.6
65.3235,118.2
65.3314,96.4
65.3456,42.8
65.3479,137.5
65.3559,215.9
65.3637,120.7
65.3653,122.6
65.3683,108.3
65.384,59.2
65.4449,55.2
65.4735,52.2
65.4841,103.6
65.4885,147.1
65.4979,702.5
65.5046,351
65.5106,568.3
65.5141,229.1
65.5185,433.3
65.523,510.9
65.5451,59.9
65.5627,94
65.5651,42.4
65.5919,19.2
65.6056,15.6
65.6194,44.6
65.6274,249.3
65.6324,80.6
65.6352,675.8
65.6389,370.2
65.6825,424.9
65.7058,143.5
65.7142,138.1
65.7251,76.5
65.7341,621.8
65.7508,337.6
65.7562,174.7
65.7608,672
65.7797,336.8
65.7851,41.9
65.7896,277.9
65.7932,211.4
65.8072,593.4
65.8101,131.8
65.8168,21
65.8252,663.2
65.8257,149.3
65.8451,362
65.8456,18.8
65.8627,76.8
65.8751,379.4
65.8837,352.3
65.8917,669.8
65.9044,246.3
65.955,199.7
65.9876,133.5
65.9971,116.6
66.0149,589.7
66.0291,134.6
66.0325,126.1
66.0404,56.5
66.0633,120.4
66.0667,122.4
66.0692,167.9
66.08,182.6
66.1128,181.8
66.1158,716.4
66.1899,169.4
66.1928,116.2
66.1939,262.1
66.1946,41.4
66.2359,568
66.2419,431.9
66.2643,53.5
66.2939,51.4
66.3059,63.1
66.3376,272
66.3402,543.7
66.388,175.4
66.3965,344.3
66.413,86.5
66.4207,468.2
66.425,101.3
66.4321,49
66.4382,104.5
66.4469,51.1
66.4572,136.7
66.4702,174.6
66.4795,106
66.4905,49.9
66.4952,365.8
66.4969,239
66.5132,160.8
66.5293,307.3
66.5432,714.9
66.558,43.5
66.5922,207.5
66.5949,89.2
66.6019,18.1
66.6146,96.5
66.6182,50.9
66.6209,97.4
66.6421,66.7
66.6561,181.5
66.6817,620.8
66.6864,91.9
66.6928,288.5
66.6958,16.3
66.699,146
66.7317,195.4
66.7825,331.3
66.8266,360.4
66.8298,186.5
66.8337,116
66.8443,447.9
66.8494,596.6
66.8556,67.5
66.8652,76.9
66.8701,89.5
66.8797,41.9
66.8867,283.3
66.9041,276.8
66.9046,98.1
66.9238,59.8
66.9292,102.7
66.9306,260.7
66.9317,17.4
66.948,69.6
66.9562,18.6
66.9615,104.2
66.975,410.1
66.9871,138.1
66.9961,64
67.0096,348.2
67.0259,127
67.0539,42.4
67.0897,62.4
67.0915,15.3
67.0932,842.2
67.1574,88.2
67.1626,284.3
67.1663,42.1
67.1852,84.4
67.1921,98.1
67.2006,250.2
67.2152,78.6
67.2177,101.1
67.2208,97.4
67.2215,356
67.2318,110.4
67.2513,83.1
67.278,632.5
67.2952,60.2
67.3234,287.3
67.3298,44.6
67.3495,15.7
67.3526,184.3
67.3623,142.3
67.3823,600.4
67.3873,171.2
67.4047,40.5
67.435,125.3
67.4375,96.8
67.4398,628.7
67.455,382.6
67.4656,316.4
67.4666,130.1
67.5004,104.1
67.518,117
67.5246,69.9
67.5419,99
67.5476,50.4
67.5493,16.3
67.6048,122.3
67.6085,96.7
67.6111,705.9
67.6167,93.9
67.6357,698.6
67.6438,63.4
67.6961,86
67.7657,108.2
67.7991,108.5
67.8136,99.3
67.8262,16.3
67.8322,841.7
67.8415,335.4
67.8529,93.1
67.8565,745.4
67.8575,399.7
67.8728,266.5
67.8747,93.9
67.8775,418.9
67.9088,64.1
67.9201,196.6
67.9213,40.4
67.9347,351.8
67.9359,66.3
67.9414,429.3
67.9831,258.7
67.9879,681.2
67.9983,104
68.0364,758.1
68.0489,60
68.0608,384.4
68.0613,46.4
68.0733,367
68.0835,272.8
68.1169,264.1
68.1206,57.1
68.122,20.4
68.1463,435.9
68.1545,105.8
68.1625,66.1
68.1886,56.5
68.2251,239.4
68.2359,94
68.2533,53.3
68.2681,40.3
68.2779,743.9
68.3012,175
68.3084,51.1
68.3229,155.8
68.3327,549.3
68.3439,386
68.3458,65.6
68.3513,117.2
68.3681,52
68.4119,174.8
68.4186,955.2
68.4718,58.7
68.473,18.5
68.4895,56.3
68.5067,261.3
68.5421,54.9
68.5569,636.9
68.5625,405.7
68.5866,610.2
68.6223,41.3
68.6305,88.8
68.6884,43.4
68.6939,177.3
68.7022,75.2
68.7094,205.7
68.736,208.4
68.7516,709.7
68.7535,44.6
68.7613,18.7
68.8057,72.7
68.8065,520.9
68.8227,371.2
68.8281,86.6
68.8423,273.2
68.8471,98
68.8524,620.3
68.9007,90.1
68.9322,727
68.9433,314.4
68.9488,58.7
68.9682,54.8
68.9688,44.1
68.9717,798.1
69.0002,290.8
69.0397,134.6
69.0532,37.3
69.056,41.1
69.0588,223.5
69.0601,256.2
69.0607,463.6
69.0832,45.3
69.0883,214.7
69.1001,78.6
69.1155,112.6
69.138,74.8
69.1449,470.2
69.1533,224.8
69.1553,173.1
69.1587,56.7
69.163,83.7
69.1707,177.6
69.1766,381.7
69.1829,733.8
69.1916,378.7
69.1962,235.7
69.1974,459.9
69.216,737.1
69.2358,361.7
69.2448,395.4
69.2717,118.4
69.279,269.2
69.2938,391.1
69.3129,20.7
69.3136,251.9
69.3148,179.8
69.3232,17.7
69.3251,852.5
69.3509,79.5
69.3693,17.4
69.3715,61.6
69.3754,335.5
69.382,55
69.3939,353.9
69.4004,65.6
69.4116,235.1
69.4149,251.7
69.4185,151.5
69.4681,192.5
69.4809,222.8
69.4825,810.1
69.4934,414.9
69.5029,98.5
69.516,218.7
69.5259,336.4
69.5274,131.5
69.5375,50.5
69.5656,55
69.5742,95.2
69.5849,124.9
69.5855,17.3
69.6012,242.6
69.6027,19.3
69.6035,40.9
69.642,475.9
69.6686,184.1
69.6862,97.6
69.755,182.6
69.7563,716.6
69.7608,881.1
69.8169,463.8
69.8396,36.1
69.8439,107.7
69.8566,102.9
69.8972,53.3
69.9074,605
69.925,315.3
69.9272,335.6
69.9402,52.7
69.941,60
69.9433,50.2
69.9467,19.2
69.9534,71.3
69.9576,91
69.9729,54.8
69.9748,754.3
70.0044,43.5
70.0117,823.1
70.0326,131.7
70.0647,120.6
70.0829,49.6
70.0933,83.6
70.0997,436.1
70.1113,102.2
70.1124,212.4
70.1172,64.6
70.1223,79.7
70.124,87.6
70.1584,59
70.1678,50.5
70.1817,62.8
70.2014,74.2
70.2067,73.7
70.2171,425.6
70.2282,17.8
70.2519,153.8
70.2641,76.2
70.2681,604.4
70.2744,102.7
70.2865,45.3
70.2978,306.2
70.3122,402.1
70.3154,48.7
70.3674,568.5
70.3831,135.9
70.3899,18.7
70.3913,94
70.4082,45.9
70.41,38.8
70.4577,71
70.4603,43.7
70.4823,575.2
70.5032,140.7
70.5235,318.8
70.5651,373.4
70.5899,457.3
70.605,259
70.6283,105.8
70.6347,126
70.6374,243.9
70.6421,47.1
70.6522,52.2
70.6593,121.5
70.6894,326.9
70.6931,102.4
70.6999,51.7
70.7011,616.6
70.7107,114.8
70.7148,823.1
70.725,182.6
70.7314,520.5
70.7584,58.7
70.7702,150.2
70.7854,61
70.8059,741.5
70.8615,61.8
70.9068,130.6
70.9224,340.1
70.9806,83.7
70.9986,298.1
71.0001,103.6
71.0044,783.8
71.0076,130.8
71.0118,41.1
71.0696,65.7
71.0705,441.8
71.0741,89.8
71.0992,19.4
71.1072,47.7
71.1313,68.6
71.1539,203.1
71.1629,97
71.1732,319.7
71.1743,105.3
71.1778,136.1
71.1836,670.9
71.1885,165
71.2058,241.6
71.2133,54.4
71.2469,49.8
71.2793,79.6
71.2944,46.7
71.2961,611.3
71.3237,616.4
71.3275,170.8
71.3304,90.4
71.3539,19.6
71.359,645.6
71.3752,155.1
71.3919,51.4
71.4341,195.4
71.4407,148.4
71.4529,797
71.4578,18.4
71.4585,176.2
71.4679,92.2
71.4686,95.2
71.4782,152.4
71.5105,330.9
71.5227,61.5
71.5308,131.4
71.5352,627.7
71.5424,51.9
71.5519,92.3
71.5694,268.8
71.5702,330.8
71.5729,82
71.5813,169
71.589,254.5
71.593,281.6
71.6006,67.3
71.6191,102.5
71.6317,96.6
71.6506,700.8
71.656,765.1
71.6594,152.3
71.6655,48.1
71.671,154.9
71.6898,187.1
71.7099,721.9
71.711,164.2
71.7305,85
71.7316,46.9
71.7363,659
71.7478,100.7
71.7727,75.9
71.7915,178.7
71.804,201.8
71.8271,132.3
71.8593,126.4
71.8818,630
71.8938,110.6
71.9065,148.8
71.9078,655.2
71.9177,394.6
71.9308,209.6
71.9488,64.3
71.9964,44.2
71.9972,248
71.9995,309.7
72.0088,757.9
72.0195,881.3
72.022,51
72.0229,211.4
72.0313,44.8
72.0344,435.8
72.0391,403.6
72.0804,196.9
72.0827,149
72.1002,578.8
72.1017,69
72.1079,866.3
72.1222,190.3
72.1256,97.8
72.1325,58.5
72.1377,60.6
72.1382,161.6
72.142,36.5
72.1479,578.4
72.1991,99.4
72.206,72.4
72.2182,164.3
72.2191,193.3
72.2205,347.2
72.221,317.8
72.2224,611.2
72.2232,284.5
72.2238,445.7
72.2244,1264.6
72.2261,391.6
72.2266,357.1
72.2276,828
72.2284,848.6
72.2293,2207.3
72.2305,3616.7
72.2319,2688.1
72.2326,2180.8
72.2328,2096.8
72.2332,1795.3
72.234,3458.5
72.2349,3768.6
72.2355,2774
72.2364,2048.2
72.2375,1333.2
72.2387,1554.8
72.2398,3095.7
72.2408,3360.4
72.2422,1593.1
72.2431,920.7
72.2435,747.4
72.2445,1045
72.2453,303.4
72.246,547.1
72.2473,38.1
72.2485,23.8
72.2514,1104
72.2855,529.5
72.2896,733.3
72.2906,55
72.2968,298.1
72.3059,274
72.3078,136.4
72.379,310.4
72.3981,166.3
72.4138,104
72.4189,80.9
72.4359,50.9
72.4493,499
72.4935,138.6
72.5009,40.5
72.5122,44.8
72.5206,59.6
72.5351,65.6
72.5484,553.1
72.5694,347.2
72.6455,81.2
72.6495,339.5
72.6583,194.4
72.6594,82.2
72.733,382.3
72.7364,192.1
72.7415,271
72.7527,104.5
72.7657,269.2
72.7678,193.9
72.7763,171.4
72.8219,586.6
72.8408,68.9
72.8555,55.5
72.8579,615.8
72.9312,116.7
72.9333,254.3
72.9405,49.1
72.9466,64.3
72.9492,656
72.9513,247.2
72.9576,17.4
72.9659,75
72.9746,187
72.9839,569.9
72.9991,181.9
73.0405,18.3
73.0447,176.7
73.065,52.4
73.0923,217.1
73.0928,291.9
73.103,21.9
73.1193,682.3
73.1315,276.9
73.1337,90
73.2024,706.4
73.2186,66.9
73.2236,93.1
73.2358,265.5
73.2428,52.3
73.244,125
73.2786,598.3
73.283,135.7
73.2956,79.1
73.3185,429.1
73.3293,227.6
73.3365,123.2
73.3512,82.4
73.357,100.5
73.3645,770
73.3667,16.8
73.403,251.4
73.412,294
73.4461,42.8
73.4959,54.7
73.5047,84.1
73.5152,681.5
73.5177,253
73.5324,220.9
73.5398,55.8
73.5826,44.1
73.6046,92.6
73.6121,367.5
73.622,172.5
73.6239,241.1
73.6245,87.2
73.6315,65
73.6337,788.5
73.6427,138
73.6455,138.3
73.66,40.8
73.6617,242.2
73.7035,580.6
73.7347,43.7
73.7408,154.7
73.7467,70
73.772,52.5
73.7902,151.1
73.7943,44
73.8006,52.2
73.8046,821.2
73.8088,78.8
73.8113,732.8
73.825,101.6
73.8516,17.4
73.8776,190.8
73.8792,39
73.8824,434
73.888,375.3
73.9868,331.7
74.019,141.3
74.0452,206.3
74.0479,166.4
74.0597,4415.6
74.085,798.1
74.0978,77.1
74.1128,45.3
74.1181,193.4
74.1386,122.1
74.1413,55.3
74.1479,506.9
74.1607,340.1
74.2027,18.8
74.2203,793.1
74.2217,301.6
74.2337,318.5
74.2458,101.6
74.2644,660.4
74.2661,599.2
74.2689,65.6
74.2995,361.4
74.3311,47.6
74.356,83.4
74.38,94.1
74.3898,347.9
74.4092,74.9
74.4134,87.6
74.4211,106.6
74.4479,635.1
74.4838,590.8
74.4871,275.8
74.4911,107.3
74.4944,79.1
74.4967,585.7
74.4984,111.7
74.505,523.2
74.5053,557.9
74.5623,180.7
74.6067,78.2
74.6087,85.1
74.6128,45.5
74.6179,127
74.6233,691.7
74.6467,74.5
74.6533,1010.5
74.661,166.8
74.6622,203.2
74.6696,569.8
74.6814,16.7
74.7045,241.4
74.7151,59.4
74.7253,83.6
74.7311,133.4
74.7514,51.6
74.7561,53.7
74.7588,17.5
74.7637,193.4
74.7796,54.6
74.8339,21.2
74.8638,112.4
74.8845,52.1
74.8859,121.3
74.8921,163.8
74.8946,414.6
74.9283,68
74.9422,41.8
74.9567,49.3
74.9624,561.3
74.9915,91.5
74.996,588.3
75.007,182
75.017,656
75.0497,42.3
75.0543,152.7
75.0626,17.9
75.0653,103.6
75.066,52
75.1734,658.3
75.1871,537.9
75.2036,89.1
75.2099,174.1
75.2268,46.8
75.2325,79.1
75.256,81.3
75.2586,409.5
75.2723,330.5
75.2987,84.9
75.3079,591.1
75.3096,133.5
75.3562,71.7
75.3643,362.6
75.3646,370.7
75.3648,352.9
75.3704,265.9
75.3742,480.7
75.3766,69.1
75.391,98.5
75.4706,301.5
75.4793,174.8
75.4966,57.9
75.5346,85
75.5453,777.3
75.5695,676.9
75.5742,98.5
75.5879,177.5
75.5885,34.6
75.5982,52.7
75.6375,190.9
75.6378,190.8
75.6488,65.7
75.6676,95.6
75.7013,356.9
75.702,20.1
75.7599,627.6
75.7767,101.4
75.8037,201.4
75.8125,431.1
75.833,145.8
75.8482,297.6
75.87,45.2
75.8782,429.5
75.8877,393.9
75.8956,18
75.9026,20.2
75.9495,17.1
75.9662,399.9
75.9749,395
75.9962,165.5
76.0068,286.1
76.0076,73.8
76.0101,63
76.0685,281.4
76.1014,151.4
76.117,127.3
76.1291,18.4
76.1306,781.1
76.1419,122.5
76.1583,49.9
76.1684,63.2
76.1697,109.3
76.1805,50
76.1968,51.4
76.212,141
76.2318,66.8
76.2646,818.6
76.2788,93
76.2876,135.8
76.2891,189.7
76.2989,59.8
76.3049,388.6
76.3638,102.6
76.4025,18.3
76.4088,50.5
76.4151,74.3
76.4435,109.2
76.4768,184
76.4901,50.1
76.5261,736.8
76.5467,76.3
76.5529,47.3
76.574,76.5
76.577,856.5
76.5829,47.4
76.5895,18.9
76.5989,689.9
76.6254,323.7
76.6384,97.8
76.6407,666.5
76.6439,621.2
76.6557,314
76.6667,565.3
76.6784,148.6
76.6831,47.1
76.7027,55.6
76.7297,228.9
76.7517,72.5
76.7584,71.5
76.7651,64.1
76.7672,69
76.772,19.3
76.7737,20.5
76.7845,52.8
76.7861,282.7
76.7887,613.7
76.801,43.3
76.8296,105.3
76.8306,181.9
76.8554,68.8
76.8681,807.1
76.8766,257.9
76.8817,190.1
76.884,66.4
76.8918,306.2
76.896,173.8
76.911,643.6
76.9254,44.6
76.9303,339.4
76.9312,62
76.9676,55.6
76.9712,48.2
76.9813,249.7
77.0029,54.1
77.0349,26.1
77.0383,121126.5
77.0607,50.9
77.067,39.2
77.0677,66.9
77.0789,93.4
77.0912,130.9
77.0995,218.4
77.1199,97.5
77.1206,662.8
77.1289,248.2
77.1435,108.8
77.1801,103.2
77.1993,180.1
77.2021,272.8
77.209,154.6
77.2221,186.5
77.2269,550.9
77.2632,317
77.2754,83.2
77.2777,535.8
77.2817,200.4
77.2894,123.4
77.3003,506.8
77.3065,110.7
77.3088,427
77.3102,18.2
77.3142,440.9
77.3196,668.5
77.3538,121.5
77.3609,245.9
77.3675,58.1
77.3704,864.7
77.378,88
77.3813,684.5
77.4005,68
77.4219,116.8
77.4272,182.2
77.4387,77.6
77.4431,301.4
77.4468,424.1
77.4566,137.5
77.4872,516.4
77.504,120.6
77.508,68.5
77.5231,657.6
77.5533,85
77.5578,56.9
77.5624,71
77.5716,95.8
77.5903,322.2
77.5914,141.2
77.6347,73.5
77.6409,284.3
77.6462,42.5
77.6693,95.5
77.6744,46.1
77.6802,383.2
77.6978,47.8
77.7241,84.9
77.815,97.4
77.8517,186.4
77.8787,182
77.879,203.3
77.8949,66.2
77.8968,738.2
77.907,898.5
77.9365,153.9
77.9477,306.6
78.02,56.1
78.0358,808.2
78.0393,66.5
78.0416,4021.3
78.043,304.3
78.0525,18.5
78.0791,55.2
78.1105,203.2
78.1157,173.9
78.1188,85.4
78.1231,319.5
78.1307,292.6
78.1338,87.4
78.1516,66.6
78.1579,323.2
78.1599,99
78.1951,433.1
78.2034,317.9
78.2077,799.7
78.212,577.2
78.2192,287.4
78.2309,167.4
78.2693,644.6
78.2781,126.6
78.2792,724.2
78.3225,56.8
78.3616,315.7
78.3824,206.3
78.3856,224.2
78.3858,232.4
78.4189,64.6
78.4445,45.2
78.4463,92.6
78.4499,346.9
78.4737,41.6
78.49,297.4
78.4941,91
78.5039,172.6
78.5187,47.1
78.5264,414.7
78.5303,18.4
78.5554,81.2
78.5687,210.9
78.5783,90.9
78.5813,127.9
78.5935,241.5
78.5943,21.3
78.601,148.2
78.61,41.3
78.6248,223.6
78.633,49.5
78.6645,183.4
78.6764,53
78.6893,81.7
78.7247,59.6
78.7457,57.8
78.7533,57
78.7915,126.1
78.8107,91
78.8183,106.7
78.8415,566
78.8697,124.6
78.8833,97.7
78.9414,242.1
78.956,42.8
78.9732,73.9
78.9958,766.9
78.9968,62
79.0248,54.2
79.0539,4112.9
79.0757,51
79.0806,726
79.0962,205
79.1084,492.7
79.12,56.6
79.1236,106.4
79.1327,57.7
79.1408,163.9
79.1986,340.3
79.2137,592.9
79.2174,117.5
79.2265,317.2
79.3355,53.3
79.3468,382.8
79.355,96.9
79.3786,226.4
79.3843,483.8
79.42,19.5
79.4321,142
79.4481,833.1
79.4607,80.4
79.4881,615.9
79.5045,70.4
79.5219,671.8
79.5373,642.4
79.5486,125.2
79.5791,189.5
79.5811,18
79.6038,440
79.6313,93
79.6571,160.6
79.6762,432.6
79.6806,112.8
79.7014,205.9
79.7075,82.3
79.7171,857.2
79.7297,121.3
79.7378,156.5
79.7561,140.8
79.7586,107.9
79.7626,320
79.7749,412.3
79.7816,492.3
79.8004,122.7
79.8025,142.6
79.8218,406.2
79.8343,413.7
79.8355,42.8
79.847,46.5
79.8756,358.4
79.9102,733.8
79.9197,73.5
79.9349,116.9
79.9456,127.2
79.9573,81.3
79.9798,327.4
79.9812,749.4
79.9876,56.3
79.9995,396.9
80.0403,87.9
80.0621,218.1
80.088,52.2
80.103,83.7
80.107,62.7
80.1132,350.8
80.1316,449.4
80.1322,209
80.2396,692.6
80.2563,80.3
80.2776,46.1
80.2843,132.1
80.3121,908.4
80.384,103.3
80.3886,40.8
80.3901,50.7
80.4093,17.8
80.43,87.3
80.4335,743.2
80.4579,177.3
80.4693,180.5
80.4752,56.1
80.4815,597.4
80.5011,117.8
80.5902,50.8
80.612,302.3
80.6202,112.4
80.6318,60.6
80.6425,170.3
80.678,591.6
80.6841,70.2
80.6881,291.5
80.6945,429.6
80.6983,511.3
80.7436,43.8
80.7617,195.7
80.7676,206
80.7844,297.2
80.7864,847.5
80.7935,340.9
80.8216,100.9
80.8228,376
80.8294,80.6
80.8376,204
80.9282,65.8
80.9346,43.3
80.9476,40066.7
80.9656,221
80.9869,321.1
80.9871,324.2
81.0017,118.8
81.0247,114.6
81.0403,161.5
81.0696,2866.2
81.0749,378
81.1073,112.8
81.1337,467.2
81.1432,347.6
81.1471,1401
81.1479,3701
81.1502,599.5
81.152,78.6
81.1523,80.4
81.1545,74.8
81.1873,415.2
81.1948,52.6
81.2153,630.9
81.2317,337.5
81.2416,57.6
81.2481,661.9
81.2646,42.9
81.2769,58
81.2852,776.6
81.3046,45.5
81.3226,87.8
81.343,388.7
81.3574,67.1
81.3655,285.4
81.3797,182.7
81.3832,136.7
81.3861,43.1
81.4039,124.5
81.4086,395.4
81.4152,17.1
81.4213,77.9
81.4267,135
81.4502,657
81.466,52.7
81.4713,438.1
81.4723,506.4
81.5068,65.4
81.5105,96
81.5253,162.2
81.5458,666.5
81.5758,43.2
81.5772,74.5
81.5961,434.8
81.6013,376.1
81.6064,83.6
81.6137,20.7
81.6341,59.1
81.6884,122.9
81.6994,561.2
81.7109,81.8
81.7503,43.5
81.754,50.6
81.7997,73.4
81.8039,93.9
81.8075,519.4
81.8197,224.7
81.8237,84.7
81.8428,39.6
81.844,706.7
81.8527,228.2
81.8654,567.5
81.8682,310.8
81.8788,427.7
81.9239,235.7
81.949,596
81.9928,292.7
82.0091,15.5
82.0579,404.8
82.0682,804.5
82.0702,762
82.0729,61.2
82.1093,252.1
82.115,73.5
82.1359,705.2
82.1425,18.8
82.1563,117.8
82.161,240.9
82.1897,293.8
82.1933,43.4
82.1948,16.2
82.1973,587.5
82.2062,51.9
82.2157,51.7
82.2416,193.9
82.2729,193.1
82.2945,61.6
82.31,201.3
82.318,780.9
82.3705,785.4
82.4035,86.9
82.415,55.2
82.4257,125.3
82.4458,127.2
82.4523,193.8
82.4592,113.7
82.4681,50
82.4729,423.1
82.4874,43.1
82.4876,43.2
82.4925,93.6
82.5207,62.1
82.5269,18.6
82.5508,266.8
82.5716,54.2
82.6018,113.2
82.6156,113.1
82.6394,700.5
82.6512,680.4
82.6551,112.4
82.6749,186.3
82.6768,110
82.7177,65.5
82.7234,54.5
82.7588,123.3
82.8131,78.1
82.815,527.2
82.8443,131.9
82.854,19.9
82.8567,21
82.8613,338.1
82.8765,60.8
82.8844,140.3
82.897,781.7
82.9271,127.7
82.9372,97.7
82.9446,8461.2
82.9472,61.9
82.9618,90.2
82.9645,57.4
83.0007,218.7
83.025,66.7
83.057,412.5
83.0853,27.5
83.0953,51.1
83.1139,65.3
83.1202,44.5
83.1401,51.6
83.2066,586.8
83.2167,47.5
83.2194,92.3
83.2502,96.2
83.267,352.9
83.2683,120.5
83.2787,19.5
83.3031,379.2
83.3107,84.7
83.3328,491.5
83.3364,626.9
83.3678,58.8
83.3819,99.2
83.4165,48.6
83.4496,164.1
83.4523,60.3
83.4833,599.5
83.4876,73.7
83.4999,80.8
83.5045,346.2
83.536,365.3
83.5376,313
83.5428,62.2
83.5623,136.4
83.5984,102.2
83.6165,104.4
83.6184,142.2
83.6369,47.1
83.6536,50.9
83.6635,50.8
83.673,298
83.6824,171.3
83.7009,59.5
83.7021,96.3
83.7181,633.1
83.7339,65
83.736,276.9
83.7391,76.1
83.7612,54.2
83.7667,258.4
83.7787,113.9
83.7902,155.7
83.7921,405.4
83.8076,690.7
83.812,182.4
83.8337,79
83.8786,18.1
83.8843,655.4
83.8999,560.4
83.9104,97.2
83.9274,55.9
83.9529,596.2
83.9623,45
83.9671,61.9
83.9696,198.3
84.0072,804.8
84.0204,56.9
84.0323,105.2
84.0441,74.7
84.0743,1050.8
84.0949,57
84.1047,621.3
84.1508,117.3
84.1756,60.3
84.1865,286
84.188,41.2
84.2071,16.1
84.2101,355.1
84.2459,48.5
84.2491,50.1
84.3109,375.2
84.3159,164.9
84.3215,101.8
84.3288,131.8
84.3384,133.9
84.3423,735.8
84.3482,50
84.3565,179.7
84.4768,57.3
84.4801,57.5
84.4961,354.8
84.5304,183.8
84.5525,52.7
84.5736,162.6
84.6258,823.1
84.665,283.2
84.6658,603.3
84.6786,371.2
84.6839,116.7
84.6941,297
84.7083,56.8
84.7344,673.4
84.7413,102.3
84.7433,59.3
84.7812,193.2
84.7935,52
84.8003,632.6
84.8144,712.5
84.832,720.7
84.843,126.5
84.8561,206.3
84.8638,43.8
84.9594,21765.6
84.9657,259.1
84.9673,68.2
84.9884,265.9
84.9923,118.6
85.002,179.3
85.021,656.6
85.0281,857.4
85.0453,55.5
85.051,279.5
85.0715,608.6
85.0725,734.4
85.0981,80.8
85.1062,94.3
85.186,731.8
85.1937,175
85.1953,471.8
85.2057,618.6
85.2142,143.3
85.2351,53.8
85.2487,375.8
85.2489,365.7
85.2574,79.6
85.2765,516.8
85.2772,38.9
85.2916,314
85.2949,336.2
85.2991,204.2
85.3096,82.7
85.3409,63.2
85.3877,89.8
85.3908,197.3
85.3959,50.1
85.3977,48.6
85.407,230.8
85.4719,97.3
85.4998,580.5
85.5235,685.2
85.5629,59.6
85.5673,70.1
85.5948,78.8
85.6037,46.1
85.644,241.2
85.6512,842.6
85.6752,71.2
85.6806,152.3
85.7045,277.5
85.7168,49.1
85.7539,789.8
85.8018,47.3
85.8052,156.2
85.808,66.8
85.8342,320.6
85.8409,168.5
85.8679,690.2
85.8749,147.5
85.8762,66.7
85.8807,426.8
85.894,15.2
85.9706,41.8
85.9732,71.7
86.0016,84
86.0049,145.9
86.0272,207.7
86.0348,217.1
86.0598,48491.9
86.0692,167.2
86.085,231.3
86.0962,82124.3
86.1027,18
86.1106,267.9
86.1984,36.5
86.202,226.4
86.2129,480.8
86.264,610.7
86.2652,358.6
86.3172,78
86.3196,148
86.335,690.3
86.3609,803.1
86.3872,119.9
86.4,92.7
86.4003,91.6
86.4077,141.9
86.4164,59.3
86.4659,20.3
86.4742,84.3
86.4769,54
86.479,592
86.4965,83.9
86.5141,16.6
86.5382,89.3
86.5494,118.3
86.577,233.3
86.6461,47.3
86.651,291.9
86.6542,279
86.6551,705.9
86.661,103.9
86.6828,204.5
86.713,254.6
86.7421,267.4
86.7753,214.6
86.7762,504.5
86.7769,82.3
86.7902,40.4
86.8324,532
86.8337,39
86.8639,63.8
86.8888,77.6
86.8972,190.1
86.9041,18.9
86.9177,717.9
86.9204,46.1
86.9634,230.9
86.9867,440.3
87.0001,201.7
87.0068,19.7
87.0182,129.1
87.1501,232.4
87.1555,162.6
87.157,130.3
87.1657,626.1
87.1984,649.5
87.1999,67.7
87.2173,61.9
87.2196,67.2
87.2224,74.8
87.2277,49.8
87.2478,17.7
87.2734,19.1
87.3237,20
87.3323,71.5
87.3845,588.8
87.3954,48.9
87.4008,21.5
87.4049,81.8
87.4076,186
87.4144,60.6
87.4613,210.7
87.4786,589.2
87.491,49.4
87.4974,445.8
87.5315,297.6
87.5356,186.3
87.5712,168.9
87.5726,128.9
87.5887,109.3
87.6573,174.9
87.6845,464
87.6865,50.5
87.7356,18.5
87.7381,18
87.7418,51.9
87.772,47.8
87.7724,50.8
87.7806,49.2
87.7952,61.3
87.812,115.5
87.831,510.5
87.8347,147.4
87.9062,683.6
87.9165,78.2
88.0022,688.6
88.0131,351.3
88.0391,13090.7
88.0407,49.3
88.0451,50.1
88.0689,347.2
88.1286,438.1
88.1487,138.3
88.1763,365.6
88.1967,51.1
88.2382,346.7
88.2521,61.7
88.273,65.5
88.3679,36.1
88.4008,18
88.4122,84.9
88.4649,353.4
88.5667,664.2
88.5756,57.1
88.5841,133.6
88.6303,15.8
88.638,142.7
88.6445,402.5
88.6553,123.4
88.6875,731.5
88.7677,213.8
88.777,299.3
88.7782,19.1
88.8129,62.6
88.8265,116.6
88.8298,53.3
88.8403,300.4
88.8422,126.8
88.8488,103.8
88.9229,175.5
88.9368,48.7
88.9379,65.6
88.9669,900.6
88.9754,67.7
88.9765,72.6
88.9908,23.1
89.0146,128.4
89.0206,62
89.0768,22
89.1204,96.5
89.129,109.1
89.1514,81.1
89.1611,260.9
89.1856,293.3
89.1975,53.6
89.2048,77.9
89.2137,88.8
89.2306,66.2
89.2738,664.9
89.3109,323.9
89.3181,351.3
89.3241,232
89.3314,48.9
89.3795,65.2
89.4339,142.6
89.4487,87.6
89.4857,99.4
89.5168,105.3
89.52,155.6
89.5624,231.2
89.5954,39.2
89.6014,76.4
89.6051,54.7
89.6399,79.1
89.6801,748.8
89.6816,86.8
89.7543,695.7
89.8506,55.3
89.8652,124.6
89.9104,69.9
89.9256,127.9
89.9307,45.2
89.9657,308.2
89.9741,462.6
89.9749,43.1
89.9825,95.1
90.0034,50.6
90.0095,122.2
90.0153,57.2
90.0181,66.6
90.0261,16.7
90.0314,425.4
90.0431,424.6
90.0445,81.8
90.102,312
90.1532,118.6
90.16,153.7
90.1921,268.2
90.2027,666.7
90.2487,148.3
90.282,113.7
90.3191,44.4
90.3331,260.6
90.3596,163.2
90.4217,59.3
90.4845,95.2
90.5001,102.3
90.5024,68.2
90.5239,76.9
90.5243,100.8
90.5326,71.8
90.5697,495.4
90.5908,19.8
90.6015,692.4
90.633,252.3
90.6355,691.6
90.6415,637.7
90.6421,405.2
90.6888,136.2
90.694,112.5
90.7082,76
90.7369,872.6
90.7521,119.9
90.7563,305.7
90.8002,17.7
90.8065,556
90.8262,202.4
90.8493,358.1
90.8504,125
90.8541,69.7
90.8652,117.8
90.8667,139.5
90.8912,203.8
90.9029,18
90.9463,56.5
90.9475,32.8
90.9694,78.1
90.9765,4777.5
91.0023,148.4
91.0049,40.4
91.0251,168.3
91.0334,56.4
91.0443,60.4
91.054,2983
91.0555,27.2
91.065,56.6
91.0689,279.1
91.092,61.7
91.0932,19.6
91.1,237.1
91.1052,867.8
91.11,258.6
91.142,343
91.153,42.6
91.165,50.5
91.1928,461.5
91.2536,116.7
91.2922,351.5
91.3265,188.9
91.3462,432.5
91.3571,52
91.3827,144.4
91.3951,86.8
91.433,497.5
91.4451,214.6
91.4492,39.7
91.4512,49.4
91.4883,126.7
91.5279,49
91.5352,134.4
91.625,152.6
91.6418,388.4
91.6649,113.1
91.7059,320.1
91.708,207.5
91.7178,19.2
91.7769,86.8
91.7784,47.9
91.7953,79.4
91.8139,615.5
91.8154,380.5
91.8175,124.8
91.8183,492.9
91.8251,162
91.8255,176.8
91.8259,155.6
91.8578,139.5
91.8804,16.2
91.8913,92.9
91.9384,276.7
92.0014,43.5
92.0129,848.2
92.0443,347.9
92.0534,54.3
92.0575,199.1
92.1116,206.9
92.1661,42.3
92.1692,476.2
92.1725,18.7
92.1793,110.9
92.2049,65.4
92.2311,123
92.2323,65.7
92.2429,89.3
92.2607,546
92.2703,19.6
92.2792,219.9
92.3058,108.7
92.318,514.2
92.3215,87
92.3344,19.2
92.3393,78.5
92.3768,301
92.419,286.7
92.4665,315.8
92.4675,43.3
92.4724,366
92.4849,17.7
92.503,322.6
92.5554,297
92.5896,618.8
92.603,55.7
92.6133,64.6
92.6135,66.2
92.7403,186.3
92.7548,81.6
92.7791,274.5
92.8205,72.9
92.8305,85.4
92.891,57.1
92.9098,80.4
92.9293,59.1
92.9363,44.5
92.9782,412.6
92.9837,750.5
92.9844,51.9
92.9951,257.6
92.9964,313.5
93.0125,486.9
93.0292,89.8
93.0841,593.5
93.0992,84.5
93.1164,17.8
93.1756,53.9
93.1883,77.1
93.1953,607.5
93.2271,46.9
93.261,52.9
93.2715,687.2
93.2741,725.3
93.2966,58.4
93.3438,263
93.3735,612.8
93.3978,53
93.4402,910.4
93.4433,78.2
93.4592,110.2
93.469,115.9
93.4785,149.5
93.4829,104.7
93.489,657.8
93.5642,488.4
93.5685,1049.8
93.5797,64.6
93.584,55
93.5903,346.3
93.6054,109.8
93.6315,52.2
93.6712,290.8
93.6741,99.2
93.7091,42.1
93.7177,129.9
93.7219,52.5
93.7781,194.6
93.7963,77.6
93.8166,119.8
93.8241,50.9
93.8576,344.5
93.8578,368.7
93.9326,329.5
93.9595,236.6
93.9624,865.1
93.991,53.4
94.0147,315.9
94.0217,89.3
94.0382,24
94.0392,62.4
94.0411,112820.4
94.0655,437.7
94.0795,177.7
94.1143,47.4
94.124,443.3
94.1313,269.8
94.137,71.5
94.1717,183.2
94.1915,58.4
94.1969,157.5
94.2047,185.6
94.2223,143.5
94.2415,120.7
94.2589,44.1
94.2756,609.6
94.2946,52.1
94.3352,63.6
94.3414,697.4
94.3471,326
94.3751,96
94.3854,394.8
94.4164,52.7
94.42,199.7
94.4247,754.1
94.4261,601.3
94.4342,16.4
94.4659,46.8
94.4673,58.3
94.4793,187.8
94.4875,114.8
94.5539,18.9
94.5634,101.6
94.5659,92.6
94.5732,206.7
94.582,112.1
94.5988,400.3
94.6012,287.1
94.6341,308.6
94.7185,146.7
94.7384,118.7
94.7396,50
94.7445,271
94.7447,272.1
94.7635,38.1
94.788,61.2
94.7973,17
94.8063,91.1
94.8178,342
94.8855,50.9
94.9133,835.2
94.9288,1141
94.9459,59.1
95.0086,70.5
95.0359,287.6
95.0445,3418.4
95.0489,421371.5
95.0505,157.4
95.0704,158.9
95.0854,328.1
95.0893,120.8
95.1186,300.7
95.1422,64.5
95.1504,56.7
95.1932,169.3
95.228,88.6
95.2343,298.9
95.2508,463
95.2683,384.7
95.2993,945.9
95.3026,304
95.3062,97.6
95.3824,113.6
95.4096,67.1
95.4155,90
95.4179,314.8
95.4191,55.1
95.4253,103.6
95.4549,58
95.4576,41.9
95.5039,398.1
95.5435,426.3
95.5562,80.6
95.5808,42.2
95.5898,292.4
95.6012,116.8
95.6044,163.6
95.6081,77.3
95.6648,46.3
95.6918,45.7
95.7712,56.7
95.8972,151.4
95.9257,71.4
95.9451,74.7
95.9467,74.2
95.9485,743.4
95.9569,207.6
95.9763,98.8
95.9961,17.8
96.0049,379.8
96.0088,64.3
96.0238,44.6
96.0523,20498
96.0825,564.7
96.0851,423.1
96.1136,359.9
96.1389,685.1
96.144,435.1
96.1761,208.3
96.1795,49.7
96.2081,121.3
96.2544,192.3
96.2575,711.8
96.2594,94.1
96.2885,19.7
96.3093,635.1
96.3233,688.3
96.3624,51.9
96.368,61.9
96.4108,101.6
96.4461,587.5
96.451,166.2
96.4704,301.9
96.4876,410.7
96.5047,159.2
96.5263,1265.7
96.5435,185.8
96.5524,59.4
96.5536,65
96.5704,280.1
96.5937,186.7
96.6391,297.4
96.6623,262.9
96.6689,535.5
96.6984,597.5
96.7018,41.4
96.7616,96.7
96.7836,231.1
96.8104,108.5
96.8148,166.6
96.8248,882.3
96.8383,95.5
96.8442,61
96.8766,48.9
96.9216,109608.2
96.9989,118.9
97.0017,61.7
97.0074,47.8
97.0532,24.1
97.0556,29.2
97.0799,57
97.0947,17.5
97.1009,48.7
97.1489,639.3
97.1571,48.6
97.1744,253.6
97.237,55.2
97.2671,700.1
97.2689,202.6
97.3072,279.9
97.4084,247.8
97.4205,427.4
97.425,101.6
97.4678,680.7
97.4698,104.3
97.5271,207.8
97.538,427.5
97.5403,95.9
97.5437,314.8
97.6076,232.9
97.7029,19.1
97.7204,57.4
97.8048,17.9
97.8387,68
97.8521,292.5
97.8836,200.5
97.9428,62.5
97.9487,193.8
97.9758,588.1
98.0062,583
98.0238,108
98.0619,737.5
98.066,80.5
98.0868,113.3
98.1381,73.6
98.143,621.9
98.1643,96.1
98.1924,203.8
98.2401,71.1
98.2443,46.3
98.2569,128.6
98.3561,67.6
98.3588,138.2
98.3887,75.5
98.438,18.4
98.5049,809.4
98.524,109.7
98.5722,65
98.5781,263.9
98.5885,62.5
98.6384,675.6
98.6406,204.1
98.6709,51.1
98.7277,618.8
98.7374,69.3
98.7444,57.1
98.7552,66.3
98.7804,70.7
98.7891,68.7
98.8115,201.2
98.8145,67.7
98.8234,142.5
98.8292,240.7
98.8392,208.9
98.8525,97.4
98.8629,637.7
98.8804,63.2
98.9008,210.9
98.9138,145.1
98.9161,130.5
98.9186,30956.8
98.9197,3836.1
98.9362,153.6
98.9667,93.6
98.9751,6644.9
98.984,122.8
99.0007,681.9
99.0613,276.4
99.0751,131.7
99.191,204.8
99.1919,121.6
99.2367,605.2
99.2655,114.8
99.3107,37.2
99.3191,94.7
99.3277,75
99.3401,561.1
99.3664,61.8
99.3802,88.3
99.3824,658
99.3845,132.9
99.4353,92.3
99.4472,120.7
99.4789,45.3
99.4836,122.8
99.489,569.2
99.5053,79.4
99.5135,654.3
99.5193,277.4
99.5324,808.6
99.6196,580.5
99.6325,58.7
99.6872,49.5
99.7031,54.5
99.7082,59.9
99.7242,76.9
99.7291,87.2
99.8425,76.4
99.8482,101.6
99.868,163.8
99.8966,62.5
99.9093,112.5
99.9802,834.5
100.0259,81.7
100.0392,114.1
100.0756,25.7
100.1549,55.7
100.2787,155.7
100.2912,37.2
100.2993,48.8
100.3118,72.8
100.3173,82.3
100.3569,218.3
100.3676,215.7
100.374,110.3
100.4008,126.4
100.4648,176.8
100.4721,191.1
100.4789,380.8
100.4831,55.8
100.5056,62.1
100.5779,173.5
100.6472,79.9
100.7054,37.3
100.7094,95.4
100.7165,518.5
100.7648,757.7
100.7752,79.5
100.8191,191.5
100.8227,77.8
100.849,271.9
100.8696,683.6
100.8747,56.7
100.8864,99.7
100.8906,216
100.9169,592.4
100.9204,456.6
100.933,127.7
100.9444,46.3
100.9599,747.2
100.9832,721.1
100.9924,45.2
101.0082,20.6
101.0322,565.6
101.047,3508
101.0675,457
101.0707,79.7
101.0725,333.6
101.0906,59.1
101.1181,125.1
101.164,156.6
101.174,149.3
101.1802,87.3
101.1936,339.2
101.1953,92.9
101.2951,59.3
101.3505,272.9
101.3562,86.5
101.3615,20.7
101.3632,147
101.3989,280.3
101.4032,63.3
101.4158,793.8
101.4287,48.3
101.4706,775.4
101.4881,212.4
101.5119,292
101.5459,19
101.5719,46.8
101.6077,829.8
101.655,133.9
101.6714,67.5
101.7429,38.9
101.7454,59.6
101.7576,917
101.7646,376.3
101.7818,50.2
101.7884,212.5
101.7973,52.8
101.7995,89
101.8047,406.3
101.8447,56
101.8462,179.4
101.8554,110.5
101.8614,46.4
101.8833,604.3
101.9136,51.3
101.9139,51.8
101.9218,309.2
101.9326,399.9
101.9443,942.5
101.9985,51.7
102.0015,308.6
102.0079,579.7
102.0502,82.8
102.0548,6414.8
102.0572,124
102.1031,551.1
102.123,46.8
102.1263,303.3
102.1282,274.1
102.1432,725.3
102.1588,413.7
102.2217,48
102.2326,116.5
102.239,62.7
102.2399,76
102.3067,153.6
102.3104,98.7
102.3163,269
102.3275,49.2
102.3705,94
102.3786,759.3
102.387,218.3
102.4608,68.9
102.5038,61.9
102.5215,329
102.5781,60
102.6178,139
102.653,66.7
102.7357,43.9
102.7656,19.4
102.8107,614.4
102.8409,43.5
102.8659,57.2
102.9166,194.9
102.944,304.5
102.9701,700.5
102.9851,784.8
102.987,54.9
102.9971,37.9
103.0069,142.7
103.0879,546
103.0911,141.5
103.0921,655.6
103.1117,139
103.1404,95.3
103.1539,620.7
103.1549,513.7
103.1603,45.2
103.176,168.9
103.2812,106
103.2919,284.7
103.3312,206.4
103.334,210.4
103.3451,390.3
103.3505,660.1
103.3846,61.6
103.4277,47.3
103.4338,95.8
103.4384,61.6
103.4595,741
103.4648,308.3
103.4777,190.4
103.5007,224.7
103.5024,871.2
103.511,51.7
103.5414,38.4
103.556,758.1
103.5788,639.4
103.5862,75.2
103.5983,160.9
103.679,203.1
103.683,45.7
103.6845,155.9
103.6993,292
103.7213,131.8
103.733,628.9
103.7581,259.3
103.773,296.8
103.783,53.2
103.8525,61.1
103.8818,410
103.9154,783.8
104.0109,86.6
104.0191,786.6
104.0705,201.8
104.1023,252.9
104.1068,404115.7
104.1395,100.3
104.173,665.8
104.1764,189.4
104.2065,165.9
104.2475,263.5
104.2523,398.2
104.2546,195.7
104.2627,16.2
104.2748,835.6
104.2766,91.5
104.354,88.6
104.3983,882.9
104.4088,250.1
104.4117,150.8
104.4441,52.3
104.5068,67.4
104.5163,271.3
104.5253,218.5
104.5618,712.4
104.5741,800.4
104.577,133.4
104.6188,741.8
104.6341,99.4
104.6647,52
104.6964,434
104.7337,70.9
104.7797,20.1
104.7938,65.4
104.8167,196.2
104.8307,47.2
104.8754,730.8
104.9285,307.7
104.9632,162.2
104.9709,217.2
104.9922,636.7
104.9938,98.7
105.0037,528.6
105.0402,82.4
105.0427,58.2
105.0446,41683.7
105.0485,48.3
105.0614,476.6
105.063,55.9
105.1102,11465.3
105.1177,18.1
105.1447,59.5
105.1912,288.2
105.1958,194.5
105.2443,58.9
105.301,244.8
105.3059,407.7
105.3136,51.8
105.4094,90.9
105.4242,40.3
105.4272,277
105.444,435
105.4592,50.7
105.4752,288.1
105.4961,161.6
105.498,76
105.5431,43.5
105.5882,224.2
105.6215,724
105.6743,419.2
105.6773,782.1
105.6872,57.2
105.698,62.5
105.705,75.5
105.7072,499.9
105.7185,517.7
105.7707,39.9
105.8159,70.5
105.8217,54.1
105.8276,52.5
105.8395,185.6
105.8782,63.3
105.8931,353.9
105.9125,23.5
105.9268,291.7
105.9605,838.3
105.9659,45.1
105.9728,767.6
106.0479,833.3
106.0676,442.6
106.0806,67.6
106.1341,43.5
106.135,419.8
106.1523,72.1
106.1565,147.1
106.1588,64.2
106.2129,60.6
106.2296,587.1
106.2474,150.7
106.283,575.6
106.3258,254.9
106.3483,73.1
106.3545,43.9
106.3889,823.9
106.4008,294.9
106.4035,263.2
106.4131,630.8
106.4215,287.1
106.4334,58.8
106.4352,81.5
106.4424,87.9
106.5277,657.9
106.5423,314.7
106.5527,277.7
106.5886,20.3
106.5978,739.2
106.6092,46.3
106.6312,55.6
106.7358,543.7
106.8747,147.4
106.8797,216.9
106.8866,701.2
106.9411,41.6
106.9504,2931
106.9602,121.8
106.984,46
106.9917,93.4
107.0283,116.5
107.0311,42.5
107.049,1522
107.0934,68.6
107.1113,174.1
107.1404,66.8
107.1494,132.7
107.2215,80.7
107.2221,74.5
107.2431,227.2
107.2875,366.3
107.2954,228.6
107.3357,212.4
107.3397,995.1
107.348,268
107.3586,52.1
107.4043,54.5
107.4138,200.1
107.4277,34.7
107.4816,52.2
107.5459,48.6
107.581,16
107.6137,766.2
107.6179,744.6
107.6487,17.5
107.6575,715.7
107.6795,197.9
107.6992,39.7
107.7189,355.2
107.7443,626.9
107.772,84.2
107.8263,80.2
107.8296,54.5
107.909,141.9
107.9228,96.7
107.9257,239.4
107.9328,334.3
107.9495,610
107.9605,72.5
107.978,603.1
108.0359,331.1
108.0442,93.2
108.1116,115.8
108.1837,48.9
108.2366,319.4
108.24,173.1
108.2415,69.4
108.2682,155.6
108.3077,322
108.312,207.8
108.3649,78.5
108.3688,86.2
108.3839,218.5
108.3947,203.1
108.3979,116.9
108.4143,406.5
108.4455,465.3
108.4518,443
108.477,59.6
108.5136,50.6
108.5446,85.2
108.5528,48.9
108.569,60.5
108.5848,50.8
108.5922,625.8
108.6395,23
108.6654,178.1
108.7375,38.6
108.7504,928.1
108.7655,167.2
108.7935,185.3
108.7977,76.8
108.809,815.8
108.8399,70.4
108.8437,669.2
108.8637,221.6
108.9255,103.5
108.9275,45.8
108.9897,50.5
108.9913,61.4
109.0286,62.4
109.0369,56.4
109.063,22.5
109.0646,126399.1
109.0748,114.6
109.101,243
109.1148,283.3
109.1646,53.5
109.1795,159.3
109.3249,63.4
109.3885,602.8
109.3918,195.1
109.4179,45.3
109.4206,207.3
109.427,118.4
109.4992,574.5
109.5016,671.2
109.5524,42.4
109.5546,126.3
109.5683,124.5
109.6052,17.4
109.629,292.7
109.6502,62.4
109.698,57.2
109.7054,49.9
109.717,524.7
109.7195,69.8
109.7327,68.9
109.7827,76
109.8036,314.2
109.8079,559.6
109.8241,114.2
109.8497,633.7
109.856,352.3
109.8611,802.6
109.9312,113.2
109.9695,677.4
109.9913,872.8
110.0137,210.5
110.0192,293.5
110.068,6716.3
110.0711,1501.3
110.0942,46.8
110.1653,87
110.2121,797.4
110.2311,52.9
110.2492,201.3
110.3125,90.8
110.3561,737.6
110.3771,437.9
110.3809,580.7
110.4914,279.2
110.4965,273.2
110.5328,175.4
110.5604,881
110.5623,20
110.5673,85.4
110.5866,86.3
110.5979,390.5
110.6994,775.1
110.7166,87.4
110.7485,153.4
110.777,51.5
110.7797,579.8
110.783,654.5
110.803,659.4
110.8312,63.5
110.8444,266.4
110.8515,45.8
110.8893,144.9
110.8968,85.9
110.9055,752
110.921,363.2
110.9233,217.1
110.9775,283.6
111.0225,280.6
111.0235,716.7
111.0392,395.3
111.0439,432.3
111.0689,33.1
111.0714,23
111.0757,424.9
111.0806,62.7
111.0887,84.8
111.103,266.2
111.1238,240.7
111.1624,191
111.192,64.4
111.2131,144.8
111.2216,98.3
111.226,87.2
111.2344,108.4
111.2364,723.2
111.2812,40.1
111.2848,43.4
111.3078,90.7
111.3108,41.9
111.3186,57.8
111.3882,370.1
111.4396,308.8
111.4478,42.7
111.4562,563.2
111.4828,202.5
111.4887,178.1
111.5038,279.6
111.5221,448.2
111.5262,272
111.5525,127.7
111.6384,57.8
111.6495,405.1
111.6912,142.8
111.714,124.5
111.7223,113.6
111.7633,19.2
111.7735,140.8
111.7922,52.8
111.7982,76.2
111.7996,45.8
111.8337,718.2
111.8502,86.9
111.8686,497.8
111.8698,194.6
111.9298,101.7
111.9334,764.8
111.9613,66
111.9923,71.7
112.0456,54.4
112.0977,115.9
112.1098,135.9
112.1277,187.5
112.156,137.7
112.2114,623.1
112.2671,837.5
112.3498,596.4
112.3765,426.4
112.4099,68.2
112.4217,142.9
112.4223,120.5
112.4238,48.1
112.4253,55.6
112.4288,58.6
112.4547,191.1
112.4754,402.2
112.5508,62.3
112.5548,673.7
112.5897,69.3
112.6037,77.6
112.6432,44.6
112.6623,47.5
112.6755,50.3
112.6797,19.9
112.7265,160.9
112.7399,198.5
112.7853,113.3
112.7929,96.2
112.8167,802.9
112.818,211.2
112.8231,449.2
112.8469,270.6
112.8502,338.5
112.8558,911.3
112.8756,110.1
112.8956,367335
112.9114,423.9
112.9345,40.6
112.9798,418.6
112.9916,52.3
113.0495,21.7
113.0761,238.2
113.1194,507
113.1627,49.2
113.1958,394
113.2629,49.4
113.3467,88.3
113.4042,303.3
113.4101,623.8
113.4221,155.5
113.4274,393.3
113.443,71.4
113.4598,608.9
113.5377,73.7
113.5482,715.7
113.5586,61
113.5749,300.8
113.6168,321.2
113.7211,461
113.786,140.8
113.7906,19.8
113.8079,38.8
113.9339,67
113.9558,102.7
114.0077,116.6
114.0251,422.2
114.0281,44.7
114.0548,83185.4
114.0631,145.2
114.066,629.8
114.0889,19.1
114.0912,170.8
114.1038,618.3
114.1099,56.5
114.1217,86.7
114.1478,348
114.1732,160.5
114.2218,97
114.2704,111.7
114.3223,254.8
114.3463,109.6
114.3509,229.1
114.3541,90.3
114.432,271.3
114.4522,96.1
114.4625,76.7
114.5356,39.7
114.549,528.2
114.5756,127.6
114.629,66.3
114.6338,674.5
114.654,494.7
114.6837,258.5
114.6984,87.6
114.7077,38.1
114.7279,71.4
114.7974,284.3
114.828,161.7
114.8335,271.6
114.8874,305.5
114.8927,111022.5
114.9299,88.8
114.9324,45.7
114.9699,73.4
115.0171,155.8
115.0292,329.7
115.0355,102.8
115.0582,2394.7
115.1321,167.5
115.1422,57.5
115.171,104.2
115.1915,21.9
115.2198,55
115.2216,44.7
115.2524,159.5
115.2637,60.3
115.274,619
115.2792,17.1
115.2955,219.6
115.3088,203.1
115.3158,92.4
115.3449,810.9
115.3505,107.2
115.3741,77.7
115.3893,73.8
115.3955,193
115.3996,107.1
115.4056,227.6
115.4181,122.4
115.4548,101.5
115.4767,53
115.487,265.7
115.5021,431.9
115.5161,291.1
115.556,154.8
115.6109,365
115.6203,585.3
115.6388,53
115.6442,249.8
115.6481,95.2
115.6533,94.3
115.681,451.1
115.6879,622.3
115.6942,812.5
115.6986,801.8
115.7138,121
115.7419,34.9
115.7525,66.5
115.8033,849.3
115.8225,213.2
115.8346,827.7
115.8574,18.2
115.8918,336.6
115.8978,737.5
115.9334,122.1
115.9503,83.4
115.9899,75.3
115.9914,688.2
115.9936,363.8
116.0705,4847.4
116.1098,39.6
116.1335,460.4
116.1459,228.6
116.1644,256.3
116.1794,19.3
116.1973,90.7
116.2019,74.9
116.2117,117.2
116.2212,396.8
116.2314,62.6
116.2778,97.1
116.3251,82.3
116.3379,23.4
116.3518,63.6
116.3705,199
116.3879,805.9
116.4303,95.2
116.5148,43.5
116.535,184.8
116.5467,265.4
116.5504,60.8
116.5826,59
116.5909,571.8
116.6003,17.8
116.608,84.1
116.6154,85
116.6303,144.6
116.7515,284.7
116.769,37.5
116.8486,579.1
116.8786,249.6
116.8908,11289.5
116.9005,44.5
116.9029,218
116.9422,95.5
116.9858,4210.6
117.0257,55
117.0309,214.7
117.0354,586
117.0498,68.4
117.0511,76.3
117.0812,668.8
117.1064,342.6
117.1101,44.3
117.1202,572.6
117.1861,52
117.1993,57.4
117.2173,248.1
117.2441,276.2
117.3289,305.1
117.3317,65.6
117.3537,73.5
117.3635,139.7
117.46,749.5
117.4918,78.4
117.5153,91.1
117.5173,183.8
117.5238,78.7
117.5262,50.6
117.528,831.5
117.5442,70
117.5618,569
117.5957,84.4
117.6162,17.1
117.6954,66.9
117.7109,180.8
117.7434,192.3
117.7568,781
117.759,45.2
117.7832,70.4
117.7969,86.1
117.8639,158.2
117.9319,197
117.9877,49.6
117.9954,113.8
118.0426,63.5
118.0647,259.9
118.0686,273.4
118.0931,80.9
118.1228,1049.4
118.1667,174.8
118.1751,57.2
118.1847,73.5
118.1939,45.7
118.2361,321.9
118.2394,408.5
118.2524,94.5
118.3691,77.4
118.372,93.8
118.3741,223.8
118.4215,748.7
118.472,280.6
118.5175,441.7
118.5777,83.6
118.5899,67.6
118.6196,228.4
118.6476,96.3
118.6592,166.5
118.6695,106.6
118.6915,405.7
118.7107,48
118.7198,486.3
118.7293,876.9
118.8155,90.9
118.8492,55.2
118.8557,415.4
118.8995,230.5
118.9093,47.8
118.9425,21.8
118.962,76.2
118.9789,57
119.0192,307.7
119.0485,48.6
119.0855,48.8
119.1032,77.9
119.1108,59.5
119.1739,45.1
119.1962,86.6
119.2286,268.5
119.2291,270.9
119.2535,800.8
119.2917,60
119.2985,71.5
119.3281,45.5
119.3357,180.9
119.3466,19.4
119.3864,83.8
119.4269,53.4
119.502,614.7
119.5121,38.7
119.5551,154.4
119.5605,296.2
119.5632,275.9
119.5754,239.9
119.6021,141.3
119.7034,50.1
119.761,279.2
119.7748,103.2
119.7855,584.3
119.7953,50.7
119.7979,303.1
119.8662,469.4
119.8709,314.9
119.8859,78.1
119.8934,95.4
119.9187,103.7
119.9323,66
119.9381,17.8
119.948,85
119.986,647
119.9896,253.9
120.0029,1499.8
120.0076,310.4
120.0806,3003.4
120.0929,860.6
120.1656,128.2
120.2134,772.8
120.2231,192.3
120.3015,113.8
120.318,184.2
120.3422,640.8
120.3522,183.3
120.4416,44.2
120.4495,84.7
120.4507,374.7
120.5125,151.5
120.5697,273.7
120.5793,236.9
120.5804,17.1
120.6297,58.2
120.6355,60.3
120.6547,73.5
120.6611,173.8
120.6776,255.6
120.7839,156.8
120.8071,107.1
120.8373,137.2
120.8869,54.7
120.9399,246.4
120.9693,86.4
120.9807,98.7
120.9952,47.3
120.9971,57.9
121.0075,425.8
121.0283,410.5
121.0351,316.1
121.0395,67.1
121.0944,50.1
121.0962,933.2
121.1012,22.1
121.1095,68.7
121.131,314.3
121.1466,52.5
121.1514,91.9
121.2907,52.7
121.3542,227
121.4669,186.5
121.5378,76.7
121.5477,245.1
121.5552,50.6
121.6302,18.9
121.6358,80.7
121.6392,191.1
121.6515,54.7
121.7304,86.2
121.7382,45
121.7607,193.1
121.7668,128.6
121.7861,342
121.8162,667
121.8353,48
121.8425,38.6
121.9533,50.1
121.9836,146.6
121.9895,82.6
122.0289,73.3
122.0569,17.4
122.0831,96.6
122.1277,56.6
122.1458,48.3
122.1832,254.2
122.1848,51.2
122.2055,741.6
122.2202,70.7
122.2458,237.5
122.3397,132.4
122.3485,75.4
122.3887,51.2
122.3905,244.2
122.3945,130.4
122.4399,18.7
122.4771,224.5
122.5379,789.6
122.5431,58
122.6013,583.7
122.6144,54
122.6214,920.1
122.6538,57.6
122.6743,507.4
122.6866,86.8
122.7337,66.5
122.7839,868.1
122.7951,149
122.8507,50.2
122.9244,9983.6
122.9692,103.4
122.9872,228.9
123.007,118
123.0092,76.6
123.0426,22.7
123.0804,50.1
123.082,139.8
123.0877,301.3
123.1305,64.7
123.1318,73.6
123.255,411.1
123.296,298.2
123.313,65.5
123.3265,95.7
123.397,662.4
123.4704,26
123.4733,49.5
123.5007,527
123.5354,419.2
123.5825,371.4
123.604,123.7
123.608,113.2
123.629,1114.7
123.6408,102
123.7091,65.9
123.7347,45.6
123.7915,58.3
123.8004,43.7
123.8149,20
123.8554,81.2
123.8945,37.4
123.9077,21.5
123.911,205.4
123.9266,47.5
123.944,83.4
123.9812,109.6
124.0369,63.8
124.1589,83.2
124.1659,283.2
124.1678,344
124.1926,801.1
124.2024,156
124.2073,811.9
124.2152,625.2
124.232,60.9
124.2437,71.8
124.2555,240.9
124.2576,105.8
124.2926,107.2
124.2941,52.6
124.3078,662.1
124.3429,90.8
124.3785,81.2
124.3954,284.1
124.4087,63.1
124.4166,858.9
124.504,315.6
124.5681,126.8
124.5819,148
124.5843,37
124.6196,360.4
124.6337,399.9
124.6497,514.7
124.6768,171
124.6977,464
124.7033,159.9
124.7084,87.8
124.7295,80.8
124.7519,527
124.7762,73.8
124.8389,777
124.9019,881.6
124.9047,24.3
124.9226,1281.8
124.9329,129.5
124.9599,418.7
124.9996,2767.1
125.0055,123.4
125.0093,195.2
125.0165,86.5
125.0242,298.1
125.0275,125.4
125.0345,288.9
125.0388,487.5
125.0597,58.9
125.0644,319.2
125.1072,146.5
125.1672,65.2
125.2147,115.2
125.2654,52
125.2712,72.1
125.3162,44.2
125.3233,261.2
125.3365,51.2
125.3524,681
125.3636,155.5
125.366,850.8
125.3833,795.1
125.438,146.3
125.4599,58.2
125.4828,594.8
125.4929,18.9
125.5049,170.1
125.5074,62.8
125.5592,106.4
125.6039,281
125.6471,47
125.6554,299.9
125.6736,896.8
125.6967,48.7
125.7028,110.6
125.7918,58.9
125.7943,86.9
125.8452,117.3
125.8493,52.8
125.8732,78.7
125.9272,310.8
126.0083,98.8
126.0099,101.9
126.0196,84.8
126.093,161.9
126.098,42.1
126.1138,96
126.1203,59.8
126.1676,270.4
126.1837,161.3
126.2235,212.6
126.253,862.3
126.2992,101
126.304,114.8
126.3151,63.3
126.3461,60.6
126.3611,426.7
126.372,526.6
126.3919,38.2
126.4108,65.4
126.4123,21
126.4713,74
126.5071,51
126.5154,40.5
126.5235,64.7
126.5567,90
126.5838,56.4
126.6391,46.3
126.6689,211.5
126.7255,45.9
126.754,181.1
126.7703,62
126.8162,58.9
126.8514,175
126.9712,218.8
126.9822,597.9
126.9845,605.8
127.0042,50.3
127.0159,212.8
127.0232,65.2
127.027,200.2
127.0365,571.6
127.0478,38.4
127.067,427.3
127.1227,577.5
127.1288,587.1
127.1394,48.1
127.185,49.3
127.2568,75.5
127.3175,51.7
127.3506,360.7
127.4784,50.7
127.5011,139.8
127.506,76.4
127.5242,409.9
127.5876,588.7
127.6812,314.9
127.7243,221.5
127.7657,610.1
127.788,88.6
127.809,21.3
127.8326,561.2
127.8377,56.1
127.8943,52.9
127.9095,237.3
127.9232,46.7
127.937,137.4
127.9711,355.6
128.0136,135.6
128.0174,59.4
128.0332,719.9
128.0663,625.3
128.0915,57.5
128.104,158.1
128.1379,700
128.1653,131.5
128.169,343.3
128.217,253.7
128.2177,185.9
128.2235,147
128.2522,52.8
128.2555,127.6
128.2988,52
128.3383,120.4
128.3808,145.7
128.4404,74.5
128.5121,136.2
128.5382,885.3
128.6071,317.6
128.6719,130
128.7004,135.3
128.7487,56.6
128.8486,20.1
128.9385,82.5
128.9722,85.2
129.0116,109.4
129.015,308.6
129.027,227.6
129.0307,352.3
129.0853,247.1
129.1021,55.1
129.1155,174.1
129.1544,41
129.1679,153.9
129.1725,297.3
129.1754,282.8
129.2966,196.1
129.3441,53.9
129.3714,75.7
129.3739,99.6
129.3956,736.8
129.4772,54.5
129.5172,414.6
129.5524,58.2
129.5578,100.4
129.6543,299.8
129.6622,297.2
129.6867,58.8
129.7312,19
129.7451,626.1
129.8658,104.8
129.9263,74.5
129.9384,69.4
130.0136,751
130.0498,5614.4
130.1906,16.5
130.2193,319.8
130.2252,280.2
130.2462,343.3
130.265,55
130.3823,280.8
130.4313,189.6
130.4521,232.2
130.5022,58.3
130.5494,168.9
130.5619,216.5
130.5757,477.8
130.6099,220.5
130.6346,398.2
130.6494,50.3
130.6893,122.2
130.7024,99.4
130.7544,631.4
130.7703,371.3
130.7782,426.7
130.8132,266.8
130.8662,64.5
130.8776,62.1
130.8829,72.6
130.9026,243.1
130.9224,156.7
130.9269,55
130.93,25.9
130.962,219.4
131.07,417.8
131.1007,150.9
131.106,134
131.1072,533.9
131.1208,17.5
131.1484,22.3
131.1686,56.3
131.194,86.6
131.2954,344.4
131.3345,116.7
131.3779,315
131.403,150.8
131.4085,158.3
131.4355,38.9
131.4372,334.1
131.4516,140.7
131.5253,143.7
131.6083,77.5
131.6568,348.9
131.6671,20.2
131.7285,19.4
131.797,338.5
131.8157,191
131.8474,57.9
131.853,65.3
131.8743,513.2
131.9099,131.8
131.9136,57.7
131.9284,155.9
131.958,122.6
131.9978,278.9
132.0031,27975.6
132.0252,17.4
132.046,278.3
132.0542,61.6
132.0654,164100
132.0766,2114.2
132.0842,58.7
132.0872,70
132.1006,72.7
132.123,129
132.1276,86
132.1797,448.3
132.1993,101
132.2622,292.6
132.2657,82.7
132.2682,60
132.2808,679.1
132.3162,136.2
132.6125,175.9
132.6227,209.6
132.6403,285.3
132.6761,50.2
132.6835,58
132.7891,319.2
132.8587,52.8
132.8733,355.5
132.8769,812.1
132.8918,96.3
132.9025,33
132.9226,64.7
132.9284,648.3
132.9582,65.6
132.9871,1982.4
132.9943,81.8
133.0345,25.1
133.0521,189.1
133.0688,5704.5
133.097,26801.6
133.1011,52.1
133.1444,214.6
133.1535,261.6
133.1812,226.3
133.1889,202.1
133.2238,248.7
133.2505,155.6
133.2798,310.8
133.2865,45.3
133.3373,36.4
133.4075,66.7
133.4536,550.6
133.4664,400.5
133.4704,90
133.4727,192.6
133.4779,103.7
133.5097,58.8
133.5223,19.6
133.5499,102.2
133.6183,62.3
133.677,58.4
133.6827,41
133.7165,276.5
133.7305,103.6
133.7956,439.4
133.8166,19.6
133.84,104.1
133.8661,19.8
133.9181,663.9
133.9249,66.5
133.9328,349.5
133.9651,98.8
133.9751,777.9
133.9862,656.7
133.9874,877.4
133.9937,338.4
133.9949,98.3
134.0006,94.6
134.0148,642.7
134.0188,8571.9
134.0449,59.8
134.0696,65.2
134.1533,553.7
134.1621,838.1
134.2132,83.9
134.2586,290.7
134.2928,132.5
134.4556,273.7
134.4659,89.4
134.4854,43.1
134.4903,58.2
134.5088,46.5
134.525,348.5
134.5507,41.1
134.6082,89.5
134.627,323
134.6507,88.5
134.6821,56.6
134.6874,45.5
134.7089,901.6
134.732,172
134.747,95.9
134.789,73
134.806,196.2
134.8348,340
134.8498,224.9
134.863,213.4
134.8713,258.4
134.8906,696.3
134.9099,20.1
134.9156,69.8
134.9965,64.2
135.0028,67116.6
135.0232,21.8
135.0314,65.3
135.0889,145.2
135.1,235.2
135.1168,126.6
135.1365,776.1
135.201,295.2
135.2802,154.6
135.2943,798.5
135.3211,161.7
135.445,452.3
135.4549,185.2
135.5387,225
135.673,98
135.7582,153.1
135.8416,197.5
135.8924,295.8
135.8931,652
135.8935,635.7
135.9338,52.4
136.0061,349.5
136.0295,95.4
136.0339,206.1
136.0481,6651.4
136.0594,329.6
136.0756,3279.4
136.0923,54.5
136.1298,91.3
136.1516,68.3
136.1554,502.9
136.2037,17.5
136.2136,131.1
136.2167,295.5
136.2404,445
136.2469,391.2
136.2676,38.2
136.275,69.5
136.3494,302.3
136.4508,17.8
136.4648,347.1
136.4936,370.7
136.5112,415.1
136.5274,73.1
136.5669,691
136.6942,35.7
136.7365,59.3
136.8128,179.8
136.8135,180
136.8181,309.5
136.8594,39.5
136.9152,142
136.9169,202.7
136.9716,563.9
137.0177,19.4
137.0597,22.6
137.1312,58.4
137.1458,64.5
137.1718,288.6
137.1904,148
137.2237,98.4
137.2931,87.3
137.3853,19.7
137.4408,123.8
137.4483,92.3
137.4728,322.4
137.4835,90.4
137.5045,139.2
137.5374,18.1
137.5389,170.2
137.5447,276.9
137.5684,46
137.6503,472.9
137.6938,161.8
137.7072,407.6
137.7255,356.2
137.735,329.2
137.7456,45.6
137.8012,113.4
137.8168,42.6
137.8272,121.5
137.8422,245.1
137.882,93.2
137.8853,211.8
137.9283,186.5
137.9941,66
138.0158,76.7
138.0279,276.5
138.0524,5250.4
138.0663,114.2
138.0689,689.7
138.1224,256.5
138.1299,47.8
138.1703,237.8
138.1911,100.8
138.1928,45.7
138.2035,921.2
138.2062,987.8
138.2421,870.8
138.2445,755
138.2503,94
138.3,182.5
138.3379,18.2
138.3451,137.2
138.3605,610.6
138.3787,147.2
138.3984,185.9
138.4255,633.6
138.506,63.2
138.5558,284.5
138.5596,1083.1
138.575,110.5
138.5842,179.8
138.6059,76.1
138.6118,57.8
138.6789,87.4
138.7042,61.1
138.7244,77.6
138.8246,187.2
138.9065,1372.3
138.9195,103.3
138.9218,341.6
138.9397,136.1
138.9859,330.5
139.1884,131.9
139.2522,146.7
139.2974,198.8
139.3003,95.4
139.3303,728.4
139.3575,624.2
139.4066,467.7
139.4294,70.1
139.4394,187.4
139.4717,46.6
139.5439,212.3
139.5786,114.9
139.5868,955.4
139.6035,67.3
139.604,82.6
139.6046,65
139.672,509.2
139.681,74.7
139.6959,172.8
139.7827,82.1
139.808,184.3
139.8679,100.2
139.9428,51.7
139.9547,637.6
140.0164,731.8
140.0226,176.3
140.0289,208.7
140.0305,42.4
140.0492,51
140.0681,1234.8
140.0934,85.4
140.0955,63.5
140.1244,183.4
140.1558,60.9
140.1773,120.6
140.2237,425
140.3106,720.4
140.375,70.4
140.4347,105.1
140.4755,606.3
140.4781,117.3
140.5682,760.8
140.6088,422.5
140.6405,355.8
140.6749,404.3
140.6908,44.9
140.7176,58.8
140.7523,329.7
140.7629,352.3
140.8113,73.6
140.9009,134.8
140.9034,1321.8
140.9521,21.3
140.9681,276.8
140.995,90.8
141.0004,30775.3
141.0332,674.5
141.1466,216.5
141.1934,69.2
141.2223,937
141.2254,74.6
141.2635,37
141.2745,77.7
141.317,466.5
141.4112,910.3
141.428,18.7
141.4477,153.4
141.4596,622.8
141.4771,492.1
141.4834,129.9
141.5003,402.9
141.5155,41.7
141.6005,470.6
141.6504,53.1
141.6632,60.9
141.6801,77.2
141.6934,106.5
141.7428,198
141.7674,704.1
141.7765,609.9
141.822,260.6
141.9013,194.6
141.9479,120.1
141.9589,79.4
141.9699,90
141.9998,40.1
142.0038,826.1
142.0176,174.4
142.0402,59.2
142.047,350.6
142.0939,62.1
142.1102,106
142.1478,20.1
142.1515,176.4
142.1522,234
142.1529,230.9
142.1703,267.1
142.2173,645.5
142.2367,126
142.3646,136.6
142.4059,46.5
142.4233,121.3
142.4283,164.4
142.43,62.3
142.455,769
142.4716,57.8
142.4971,113.1
142.5412,970.4
142.5878,675.8
142.6135,271.1
142.6199,599.2
142.6207,563.3
142.6577,75.1
142.6802,54.6
142.7693,57.9
142.7742,446
142.8189,395.3
142.8508,83.3
142.9889,69.2
142.9962,282.7
143.0729,106.4
143.0814,236.6
143.0882,61.6
143.1185,21.3
143.1737,16.1
143.1964,48.1
143.2388,64.6
143.2449,17.3
143.2561,756.5
143.3302,67.2
143.383,121.7
143.3877,87.4
143.4022,642.7
143.454,74.9
143.4581,400.2
143.5192,60.8
143.5377,597.9
143.5792,482.4
143.5916,101.5
143.6088,587.9
143.654,258.3
143.6627,213.7
143.6797,293.4
143.6832,415.7
143.7663,57.9
143.9216,52.1
143.9552,50.3
143.9607,57.8
143.9995,205.2
144.0332,52.6
144.0565,87.2
144.0632,26.7
144.1035,18.1
144.1393,186.9
144.1976,209.9
144.2022,592.1
144.2349,488.2
144.3089,151.6
144.3108,201.6
144.3232,40.6
144.3925,575.3
144.4263,87
144.5032,122
144.5293,79.5
144.551,176.9
144.5635,426.1
144.5771,37.8
144.6266,142.3
144.6405,44.8
144.6412,54.9
144.6418,48.8
144.7023,410.2
144.796,940.6
144.8556,625
144.9095,784.2
144.9545,41.4
144.9807,3819.6
144.9946,77.6
145.0949,93.9
145.253,181
145.3577,661.1
145.4116,117.5
145.6168,195.2
145.6645,119.7
145.6743,252.2
145.6995,364.7
145.7393,156.5
145.8371,19.9
145.8555,108.1
145.8686,153.9
145.8808,65.6
145.9216,337.7
145.9525,106.3
145.962,56.2
145.9637,60.4
145.9674,198.1
145.9692,160.5
145.9765,1218.7
145.9814,94.5
146.0124,1634.1
146.0188,17240.9
146.0385,20.3
146.0447,162.2
146.05,18.4
146.0585,654.9
146.0603,669.4
146.17,409.8
146.1808,190.3
146.2065,86.6
146.2779,1031.9
146.304,409
146.3484,293.7
146.3833,643.5
146.4649,121
146.4772,147.9
146.4909,170.3
146.5667,114.2
146.6689,606.8
146.68,63.5
146.687,303.9
146.7744,152.6
146.823,246.9
146.8276,65.2
146.96,122.5
146.9817,77867.5
147.0107,407.6
147.0368,46.9
147.0476,63
147.0763,45335
147.1127,33910
147.1167,659.7
147.2367,196.8
147.3173,145.1
147.3203,37.1
147.3437,656.9
147.4098,82.2
147.5312,58.2
147.5624,312.8
147.5784,89.1
147.5849,23.1
147.5901,584.3
147.6684,313.7
147.6783,243.8
147.7093,748
147.7133,19.9
147.7613,693.2
147.7637,59
147.815,492.1
147.8478,192.9
147.9067,45.7
147.9085,71.2
147.9338,230.3
147.9622,19.7
147.9889,92.2
148.0078,290.4
148.0105,230.7
148.0714,132.9
148.0796,438.2
148.1162,242.7
148.1602,21.4
148.2092,168.9
148.2141,115.4
148.2448,17.9
148.2499,54.8
148.2714,47.2
148.3171,778.2
148.3808,50.5
148.429,159.1
148.4477,913.1
148.4939,174
148.5069,203.5
148.5192,64
148.5319,1408.4
148.5508,182.7
148.554,53.3
148.5664,142.7
148.5718,148.9
148.5779,340.1
148.5897,19.4
148.6188,53
148.7001,55.6
148.7254,547.9
148.8636,147.5
148.8653,236.4
148.9446,63.6
148.9494,700.6
148.961,2782.1
148.9968,82.2
149.0024,56
149.0185,4426.6
149.0233,6254.1
149.1392,53.6
149.2085,56.7
149.2186,209.1
149.2544,84.7
149.2616,336.5
149.3056,70.5
149.3129,765.8
149.3223,280
149.3907,220.5
149.3923,48.3
149.4194,814.9
149.446,484.6
149.4739,117.5
149.4809,62
149.5094,240.1
149.5348,129.9
149.5613,50.5
149.5686,81.4
149.586,193.4
149.5934,708.2
149.6779,69.3
149.6823,97.5
149.6953,455.2
149.7891,821.7
149.8083,243
149.8371,272.9
149.8585,869.8
149.9054,636.6
149.9119,18.4
149.9578,72
149.9639,188.1
149.9758,669.1
149.9927,4918.5
149.9948,108.8
150.0138,544.9
150.0265,28
150.0962,342.3
150.2001,18.4
150.2049,796
150.209,572.5
150.2757,161.6
150.405,106.4
150.4086,244.2
150.4364,66.4
150.4851,702.4
150.4904,146.7
150.5765,118.7
150.5815,753.6
150.6973,70.2
150.7068,49.7
150.7138,184.3
150.7232,112.4
150.7562,111.2
150.7889,145
150.8158,42.5
150.8694,301.9
150.9309,259.7
150.9768,39102.2
150.9842,35.5
151.0002,43.6
151.0447,175.6
151.0477,1557.8
151.0605,50.1
151.0791,77.7
151.1047,851.3
151.1146,146.7
151.153,120.2
151.2108,186.5
151.2168,604.1
151.2568,645.1
151.295,87.7
151.4294,793.6
151.4526,76.2
151.4573,161.7
151.5589,103.4
151.5938,114.7
151.599,189.6
151.7149,319
151.8218,118.2
151.8323,634.1
151.9034,283.8
151.9397,147.6
151.9664,69
151.984,82.5
152.0221,8359.3
152.0318,1612.2
152.0757,355.3
152.1587,121.7
152.1827,369.9
152.2039,163.5
152.2333,308
152.2521,486.5
152.2617,18.3
152.2895,58.8
152.301,63.8
152.3454,92.4
152.462,77.3
152.4648,70.5
152.4917,137.1
152.5156,18.8
152.5179,735.2
152.59,66.1
152.6255,319.2
152.6314,95.7
152.6887,246.9
152.7839,635.3
152.7913,164.6
152.7935,46.6
152.8184,222
152.8381,78.1
152.9095,175.6
152.9199,74.7
152.9749,599.3
153.0077,266.4
153.2129,459.1
153.3378,61.2
153.4839,56.7
153.4984,679
153.5171,52
153.5346,175
153.544,18.8
153.5574,244.4
153.6002,840
153.6739,115.3
153.7929,246.8
153.8082,706.6
153.8129,185.9
153.8217,90
153.8695,84
153.8787,219.5
153.9753,64.2
154.011,889.1
154.0235,91.1
154.0268,1005.5
154.0586,2257.1
154.0659,544
154.0666,529.7
154.1622,55.1
154.1685,147.9
154.1787,17.5
154.2807,134.5
154.3153,144.2
154.3396,272.5
154.3895,50.3
154.4063,87.1
154.4118,488.7
154.4183,17.2
154.4213,53.1
154.4342,18.9
154.4526,164.1
154.5683,113.5
154.5735,205.2
154.5914,325.8
154.6101,640.3
154.6378,62.5
154.6517,336.8
154.7241,21.5
154.7606,430.4
154.8576,54.7
154.8802,364.6
154.9257,215.9
154.9381,638.6
154.9457,101.8
154.9547,93.7
154.9612,550.3
155.0426,1133
155.0493,53.4
155.0517,148.7
155.0539,3007.9
155.079,2203.7
155.0813,17.2
155.133,112.7
155.1492,693.9
155.1593,143.4
155.186,315.9
155.236,490.3
155.2387,310
155.2588,738.4
155.3146,145.1
155.3448,132.4
155.4009,256.9
155.4638,455
155.5111,665.8
155.5903,117.8
155.6576,598.4
155.6725,179.3
155.6882,55.7
155.7102,613.3
155.717,40.7
155.7611,93.7
155.7677,52
155.7967,53.5
155.8672,68.3
155.9092,651.3
155.9209,407.1
155.9292,66.5
155.9526,304.4
155.9803,138.1
155.9847,294.9
155.9969,83.3
156.0272,102
156.0421,4169.6
156.0573,24.4
156.0767,57215.6
156.1251,76.4
156.2298,46.6
156.2581,60.2
156.3253,85.3
156.3771,223.6
156.3896,49.2
156.394,458.4
156.3958,52.9
156.4122,134.2
156.5002,99.5
156.6148,74.1
156.6257,124.8
156.7302,86.4
156.764,36.6
156.784,55.8
156.8137,212.2
156.876,118.8
156.8911,198.2
156.9466,331.6
156.9552,260.6
157.0121,467.1
157.0252,809.9
157.08,1336.6
157.0979,754.8
157.121,219.5
157.1512,63.2
157.1634,117.8
157.1688,384.9
157.2271,473.2
157.2677,54.2
157.3729,251.6
157.3972,67.4
157.4787,713.8
157.5176,847.6
157.5198,84
157.5317,224
157.5624,161.3
157.6762,657.8
157.77,88.7
157.8377,88.9
157.8649,287.1
157.8914,176.1
157.9137,162.2
157.9266,160.4
157.9467,85.9
157.9732,153.8
157.9998,44.1
158.0032,271.5
158.0124,1361.5
158.027,8767.9
158.0373,109.1
158.0446,48.3
158.0471,59.8
158.1001,270.4
158.1245,425.4
158.1326,65
158.1796,463.2
158.203,679.7
158.2326,81.7
158.3066,571.9
158.3394,98.9
158.377,277
158.3837,62.6
158.3951,295.5
158.3998,524.3
158.4719,63.5
158.5376,287.2
158.5435,112.8
158.6309,49
158.6551,408.8
158.6675,52.4
158.7165,157.9
158.7675,59.8
158.8126,94.9
158.8618,21.1
158.9323,177.4
158.9372,734.1
158.9554,476.1
158.9641,4032.1
158.9964,6042.5
158.9997,58.7
159.011,26.7
159.0157,394.2
159.0305,117.8
159.0801,783.4
159.1167,75.5
159.1403,203.1
159.1536,51.3
159.2138,78.2
159.2477,17.8
159.27,18.7
159.2803,62.5
159.304,276.5
159.3288,59.1
159.3558,47.8
159.3724,212
159.4421,91.1
159.451,745.5
159.4866,516.7
159.5086,135.5
159.5391,94.4
159.5635,152.3
159.5792,96.2
159.5996,18.3
159.8195,358.9
159.8635,934.2
159.8738,99.2
159.887,50
159.8889,76.4
160.0228,56
160.0345,8875.1
160.0375,659.3
160.0604,144122.7
160.0857,88.8
160.1381,792.8
160.1654,93.7
160.2379,318.9
160.3278,57.5
160.3917,18
160.4524,68.1
160.4564,205.5
160.5061,607.1
160.5385,66
160.5627,471.5
160.5999,152.3
160.6587,202.2
160.7199,47.5
160.7986,299.8
160.9383,46
161.0638,6229.1
161.0912,719.2
161.096,16.7
161.1324,397.9
161.1388,987.4
161.157,43.9
161.1701,45.3
161.1829,72.9
161.2275,273.9
161.2513,20.4
161.3819,181
161.3914,488.9
161.5353,164.1
161.5481,69.8
161.6375,24.3
161.7165,693.4
161.7256,73.8
161.7396,396.5
161.7581,48.3
161.7634,46.4
161.7792,910.8
161.7974,319.7
161.8368,72.4
161.8536,875.1
161.894,165.3
161.9967,212.5
162.0265,374.2
162.0362,228.9
162.0502,9806.7
162.0647,82.2
162.069,151.4
162.1124,103.4
162.133,61
162.2335,89.4
162.2614,301.9
162.2639,409.4
162.3118,63.8
162.3958,236.7
162.4288,95.9
162.5094,287.5
162.6476,54.3
162.7087,74.4
162.7326,80.8
162.7503,158.9
162.777,60.8
162.9053,102.6
162.9557,2239.5
162.9655,19
162.9708,45
162.9759,900.8
163.0155,1583.3
163.0388,19.1
163.073,118
163.0815,340.3
163.2154,653.9
163.2425,53
163.2991,67.2
163.3134,350.6
163.3699,56.4
163.5301,89.8
163.5404,560.9
163.5733,54.9
163.6034,61.1
163.6348,62.7
163.6393,61
163.6415,473.1
163.6439,933.9
163.6473,349
163.6546,159.6
163.6558,171
163.6577,42.2
163.6617,517
163.6747,1072.3
163.6838,234.9
163.7088,340.4
163.7513,333.2
163.7867,157.8
163.789,184.8
163.795,740
163.8066,695
163.8131,184
163.9083,86.1
163.9133,342.9
163.9247,322.2
163.9771,487.6
163.9924,72.7
164.0124,674.8
164.0149,208.6
164.0226,72
164.0294,7516
164.0384,53.4
164.0574,411.5
164.079,275.3
164.1208,211.2
164.1368,131.3
164.1466,65.5
164.1645,47.8
164.1666,247.9
164.2794,56.1
164.4935,39.9
164.5611,222.5
164.5875,190
164.5942,284.6
164.6199,347.2
164.7585,195.5
164.8369,103.3
164.8485,73.5
164.8542,331.1
164.8597,99.1
164.9206,2320.8
164.93,13199.6
164.935,1784.9
164.9606,141.6
164.9925,1447.8
165.0506,104.1
165.0912,408.8
165.1518,99.3
165.1727,93.1
165.1939,44.1
165.2059,305.7
165.2105,505.2
165.2337,623.7
165.2399,235.3
165.2461,363.4
165.2629,507.8
165.5083,84.4
165.5194,123.8
165.5419,310.8
165.6938,17.4
165.7262,473.2
165.8007,17.6
165.866,910.4
165.8878,197.5
165.8992,76.6
165.902,485.3
165.9786,1403.5
165.9875,1505.9
166.0448,715.4
166.0613,621
166.1344,677.5
166.1705,682.5
166.1733,84.1
166.1834,189.5
166.187,43.8
166.2011,61.9
166.262,42.8
166.2725,68.9
166.3802,156.7
166.3848,96.6
166.438,51.6
166.4587,48.5
166.5558,55.3
166.6427,310.3
166.6684,105.8
166.7149,75.3
166.7187,18.9
166.8287,49.3
166.8662,622.6
166.882,49.8
166.91,744.6
166.9239,471
166.9508,16623.5
166.9918,92.2
167.0114,128
167.0142,781.6
167.0217,9654.1
167.0619,79.7
167.0665,806.7
167.1066,69.7
167.1426,79.2
167.1694,522.2
167.1781,56.3
167.1801,127.1
167.2823,111.6
167.304,61.5
167.3552,42.1
167.359,293.6
167.4028,797
167.5302,459.8
167.5337,88.1
167.5908,100
167.6898,40.3
167.7032,360.9
167.7228,63.2
167.728,158.2
167.7356,65
167.7503,68.7
167.7615,98
167.7769,424.2
167.7879,182.1
167.8081,149.6
167.8163,229.8
167.8184,346.9
167.8582,140.7
167.8689,117.2
167.9127,780.6
167.981,18.6
167.9945,1351.1
168.0059,834.5
168.025,165.5
168.1298,418.2
168.184,133.6
168.199,1053.6
168.2482,317
168.3368,206.7
168.3552,112.5
168.4502,43.4
168.454,106.3
168.6835,57.2
168.6892,62.6
168.7061,112.1
168.7264,82.7
168.7533,515.8
168.7815,98.1
168.8081,239.1
168.8368,182.8
168.8962,614.9
168.9186,87.2
169.014,83.3
169.0484,209
169.0584,75388.8
169.0649,505.7
169.0947,1748.9
169.0969,749
169.1266,488.1
169.1738,211.8
169.2162,120.2
169.3251,187.8
169.3364,515.2
169.3429,79.1
169.3924,69.1
169.4103,126.6
169.4391,18.4
169.4458,214.3
169.4824,61.3
169.5001,541
169.5737,395.9
169.5873,316.7
169.6325,40.3
169.663,53.4
169.759,204.8
169.7658,74.4
169.7695,18.1
169.7762,169.1
169.9764,62.3
169.9861,447.9
170.0245,673.3
170.0327,4774
170.0617,1081
170.0924,48921.4
170.1171,46.7
170.3338,67.5
170.3554,194
170.3658,191.7
170.387,251.6
170.4236,206.7
170.4584,289.6
170.5475,157.3
170.5605,143.5
170.6252,42.2
170.6419,77.5
170.6484,260.8
170.661,500.4
170.6872,960.9
170.7119,323.6
170.7607,830.1
170.7666,66.2
170.7981,51.3
170.8067,133
170.8091,133.3
170.8544,1974.5
170.9248,410.4
171.0144,69.4
171.0165,436.2
171.028,251.8
171.0531,1562.1
171.0787,190.7
171.0958,565.8
171.1402,247.6
171.1445,753.5
171.1525,19.3
171.1771,18.6
171.1848,339.2
171.2024,501.6
171.257,154.7
171.2919,253.3
171.3012,155.5
171.3777,49.9
171.4226,382.1
171.4508,71.3
171.4882,64.8
171.5246,749.6
171.5433,628.4
171.5662,798.9
171.6092,256.1
171.6716,262.7
171.6839,106.8
171.7464,189.7
171.7627,378.5
171.8114,49.9
171.874,92.6
172.0066,845.7
172.0282,739.5
172.0378,49.2
172.04,114.7
172.0629,252.5
172.1593,365.2
172.164,43.4
172.1762,381.9
172.1853,80.4
172.1895,325
172.1922,65.8
172.2148,171.5
172.3038,105.3
172.3095,285.5
172.3565,295.9
172.3618,94.6
172.3698,148.6
172.4006,44.7
172.4574,49.5
172.4698,43.3
172.4858,85.8
172.5161,209.1
172.5826,50.5
172.6162,94.2
172.7139,458
172.7212,250.9
172.751,227.8
172.7704,693.4
172.7748,220
172.7817,23.7
172.7918,662
172.7991,294.9
172.8068,328.7
172.8194,517.5
172.8379,103.5
172.8412,651.4
172.8514,1298.8
172.8826,350.7
173.0202,36.3
173.0268,590.3
173.0498,113.1
173.0629,412.4
173.0993,108.3
173.1984,282
173.2655,82.2
173.3425,39.2
173.3482,267.3
173.3599,43.2
173.3642,102.7
173.4003,293.5
173.4295,196.3
173.4326,169.9
173.4413,127
173.4647,65
173.4754,114.6
173.4777,813
173.5277,49.6
173.5568,111.4
173.5869,77.3
173.5906,610.5
173.6028,641.7
173.7241,470.2
173.7379,630.5
173.8236,604.4
173.8268,76.6
173.866,347.3
174.0302,23.2
174.0378,307.8
174.1381,77
174.2325,85.8
174.2495,229.2
174.2935,112.4
174.3111,121.4
174.3433,281
174.3957,139.5
174.4007,229.9
174.4516,114.9
174.4844,278.4
174.5003,41.8
174.5451,53.1
174.5547,162.4
174.5627,679.4
174.624,252.9
174.6283,42.1
174.6961,60.3
174.7584,16.8
174.8999,255.8
174.9381,675.8
175.0046,20.3
175.0135,39.9
175.0188,21.7
175.0343,5637.3
175.0455,3176.5
175.1103,97.1
175.119,62911
175.1293,532.2
175.1483,76.4
175.1547,55.1
175.1716,73.7
175.2623,112.6
175.3116,198.4
175.3586,900.2
175.3665,193.4
175.3913,137.4
175.4846,54.9
175.56,52.5
175.6757,613.2
175.8025,551.4
175.8314,185
175.8398,140
175.895,137.9
176.0085,1838.5
176.0298,360.2
176.0536,54.9
176.0658,12886.9
176.0822,53
176.1029,690.9
176.1223,387.5
176.2588,111.2
176.2788,377.8
176.3424,218.5
176.3753,884.2
176.4664,711.9
176.5185,66.9
176.6031,86.3
176.7039,80.4
176.7669,204.1
176.8126,909.2
176.8404,588.2
176.8572,228.7
176.8629,92.1
176.8792,52.5
176.8863,67.4
176.9924,907.3
177.0248,656.3
177.0611,4559.8
177.076,514.6
177.0871,355.6
177.1752,63.5
177.1913,140.5
177.2584,80.8
177.4302,277.3
177.4798,142.2
177.5421,232.1
177.5638,87.7
177.5742,62.6
177.5992,289.4
177.693,18.8
177.7739,48.9
177.8136,63.2
177.8232,201.1
177.8402,147.3
177.8459,62.3
177.9197,114.4
177.9326,688.7
177.9394,20.1
177.9589,168.9
177.9692,638.5
177.9744,156.3
178.0087,13975
178.0136,53.1
178.0242,4905.1
178.0587,6212.9
178.1018,131.7
178.1427,95
178.2195,98.5
178.2372,288.2
178.3253,52.7
178.3734,94.9
178.3829,49.9
178.434,699.5
178.4547,75.4
178.5021,428.1
178.6103,692.5
178.6628,219.1
178.8452,404.7
178.8603,390.8
178.8991,199.1
179.0489,843.2
179.0567,152.8
179.0767,182.6
179.0831,94.7
179.0889,54.2
179.0994,762.9
179.1052,454.3
179.132,296.8
179.161,354.6
179.2498,253.7
179.2879,252
179.3328,56
179.3354,504.9
179.3934,83.2
179.4547,248
179.4885,128.8
179.5224,93.6
179.5511,884.4
179.5591,153.9
179.6284,151
179.7068,121.1
179.7235,152.9
179.8097,37.4
179.9012,335.1
179.9603,81.9
179.9646,49.9
180.0035,4848.5
180.0551,94.1
180.0937,52.1
180.1152,161.1
180.1367,104.1
180.2384,784.6
180.2465,381.8
180.2906,48.8
180.4033,65.5
180.4576,63
180.4709,414.3
180.5199,240.8
180.523,363.2
180.5496,133.6
180.6407,456.7
180.6468,389.2
180.6707,102
180.773,88.6
180.8946,949.9
180.904,10796.4
180.9285,90.3
180.9383,38.9
180.9458,95.3
181.0649,7912.1
181.0766,199
181.0834,100.5
181.1013,39.4
181.1774,158.5
181.2298,54.3
181.2517,109.9
181.2563,628.4
181.3124,46.9
181.387,52.4
181.5333,50.2
181.5371,417.4
181.5396,20.3
181.5746,537.6
181.5962,165.9
181.6278,192.8
181.6874,861.4
181.8024,59.4
181.8313,55
181.8637,40.9
181.8774,48.6
181.9207,213.2
181.9549,103.7
181.9952,42.9
182.003,59.1
182.0067,321.4
182.0127,66
182.0157,185.9
182.0425,36623.2
182.0649,148.8
182.1015,59.7
182.115,496.7
182.2778,53
182.4157,1072.7
182.5193,794.9
182.5449,157
182.633,84.8
182.6821,192.3
182.7127,276.8
182.8036,143.1
182.8549,80.5
182.8712,59.7
182.8787,261.4
182.8946,290.1
182.8973,179.2
182.9025,69.2
182.9686,45.4
183.0446,1007
183.05,202.3
183.0977,67.5
183.1106,1176.7
183.1141,352.4
183.1397,156.7
183.2223,215
183.2402,125.7
183.4428,686.9
183.4582,300.8
183.4684,143.8
183.5328,273.7
183.5696,55.2
183.6118,55.6
183.6603,131.4
183.6661,143.2
183.6986,262.4
183.9648,143.6
183.9704,475.1
184.0372,101.2
184.0643,57.7
184.0734,2559972.3
184.0807,861.4
184.0825,508.9
184.0859,280.1
184.0944,421.8
184.1096,113.3
184.1281,149.4
184.1547,51.7
184.1688,57
184.1822,160
184.2614,385.4
184.3137,54.5
184.3341,101.6
184.4424,202.5
184.4699,199.2
184.4981,181.7
184.5389,265.1
184.7052,88.4
184.7318,122.9
184.7385,644.3
185.0323,90114.9
185.0694,4201.4
185.0767,113207.8
185.0998,182.1
185.1517,21.7
185.1982,311.8
185.284,209.6
185.3756,274.3
185.4292,901.3
185.4396,452.1
185.4544,42.9
185.5001,110.8
185.5632,166.2
185.5642,170.7
185.5651,141.5
185.5719,87.8
185.5997,18.5
185.6241,326.6
185.6358,21.6
185.6716,333.1
185.7219,58.7
185.7426,153.8
185.9525,68
185.9601,1283.1
185.9757,836
185.9782,714.5
185.9921,191.1
185.9959,52.2
186.0358,941.7
186.0776,11829.9
186.1331,77.5
186.272,70.5
186.2952,88.5
186.3839,87
186.3859,199.1
186.4972,169.9
186.5403,39.8
186.5645,142.4
186.5673,49.1
186.5732,99.9
186.6558,253.7
186.7077,160.4
186.7409,250.4
186.8262,19.3
186.8448,402.7
186.9122,2424.1
186.966,506.2
186.9686,164.2
187.0305,3831.9
187.0578,5740.4
187.0714,1374.5
187.1088,493.1
187.2669,445.6
187.2919,687
187.388,86
187.4468,55.8
187.558,40.3
187.6703,67.7
187.7678,82.6
187.7863,56.4
187.8148,318.4
187.8439,236.9
187.8782,67.2
187.8993,59.3
187.9487,195.7
187.9541,57.3
187.9627,99.6
188.0049,266.1
188.0494,47.9
188.0792,304.4
188.1049,128
188.1151,35.8
188.2828,585.8
188.2883,329.4
188.293,110.9
188.3973,36.8
188.4428,59.5
188.4713,60.2
188.4737,120.3
188.5731,385.7
188.5856,236.7
188.6115,47.3
188.6218,433.4
188.6463,162.7
188.6731,638
188.6962,137.4
188.7199,134.4
188.8059,78.7
188.8393,76.2
188.8539,223.2
188.8864,20
188.8924,195.5
188.9216,17.3
188.9309,194
188.953,54.7
189.0502,383.4
189.0611,3252.6
189.0708,50.5
189.0871,6308.9
189.1082,78.7
189.136,846
189.2348,103.1
189.2422,65.8
189.2729,205.1
189.3272,54.5
189.3815,92.6
189.398,213.7
189.477,930.2
189.5524,947.4
189.6022,543.2
189.6949,20.8
189.7796,46.6
189.8508,344.6
189.9026,78.2
189.9426,743.5
189.957,82.4
190.0496,82.9
190.0577,75.7
190.069,361.6
190.0801,57
190.096,401.3
190.1203,19
190.1513,654.2
190.1593,42
190.1807,161.7
190.1877,774.7
190.2053,61.2
190.2538,647.3
190.2684,69.9
190.2765,212.7
190.3017,54.1
190.3501,82.7
190.5203,55.4
190.7788,206.7
190.7962,963.9
190.8076,205.2
190.8688,18.1
190.9134,21.7
190.9445,53.9
190.9769,121.2
191.0015,21.2
191.0083,3301.7
191.0263,1232
191.0343,135.8
191.0404,71959.2
191.0513,18.8
191.0768,11799.4
191.1066,52.8
191.2446,742.8
191.2988,45.2
191.4436,53.8
191.4692,56.4
191.4837,752.9
191.531,144.1
191.5608,197.1
191.6137,127.5
191.6264,51.8
191.646,710.8
191.7315,146.9
191.823,21.7
191.8731,42
191.9051,353.2
191.9327,57.8
191.9825,532.4
192.0151,423.1
192.0399,8506.1
192.0438,1547.5
192.0872,154.8
192.0901,79.3
192.2372,67.3
192.2883,128.9
192.4182,146
192.4319,267.3
192.4508,48.8
192.4551,181.4
192.5519,68.7
192.5591,50.2
192.5864,1006.2
192.7069,165.3
192.7149,345.6
192.7566,56.8
192.7935,235.4
192.9989,1994.6
193.0103,48.8
193.0131,276.5
193.035,2366.2
193.0452,111.5
193.0619,676.5
193.1109,96.2
193.1535,101.7
193.1602,359.2
193.1718,85.1
193.1968,174.8
193.2502,261.9
193.3901,196.1
193.6591,676.7
193.7445,141.1
193.795,68.9
193.841,300.3
193.9985,1120.5
194.0049,1182.7
194.0104,139.7
194.0261,243.3
194.0327,2262.2
194.0953,20
194.1542,166
194.2251,143.6
194.2331,344.7
194.2457,792.3
194.2503,533.3
194.2704,398.7
194.2934,48.3
194.3408,74.2
194.3592,341
194.3939,819.7
194.4065,136.2
194.4209,110.7
194.5178,133
194.5731,302.1
194.6609,100
194.6738,47.6
194.6948,205.4
194.7006,321.3
194.7054,58.9
194.7741,465
194.7821,75.9
194.8071,402
194.8892,161.5
194.9695,423.4
195.0033,763.2
195.0105,235.5
195.0226,154.7
195.0448,180
195.1496,956.6
195.2176,139.5
195.3493,40.6
195.422,279.8
195.4605,715.6
195.4905,718.4
195.5031,89.8
195.538,69.5
195.5985,122.7
195.6255,412.8
195.6739,17.3
195.7939,214.9
195.8151,315.2
195.8255,213
196.0793,100.6
196.1697,306.2
196.1819,145
196.2275,110.8
196.2619,17.1
196.2851,53.2
196.3213,299.9
196.4568,322.9
196.5121,40.1
196.545,199.2
196.568,284.3
196.5767,98
196.6072,766.4
196.7003,17.2
196.7457,128.5
196.8511,419.2
196.8652,4897.9
196.878,1292.1
196.9213,17.2
196.961,21.6
196.9814,340.6
197,49.2
197.046,65.9
197.0726,871.2
197.093,729.8
197.1752,600.7
197.3132,85.7
197.3396,632.5
197.431,236.1
197.5385,88.6
197.6511,100.4
197.7347,60.1
197.8498,316.7
197.8948,54.5
197.9669,67.9
198.0044,726.3
198.085,5558.5
198.0893,2171.8
198.131,58.2
198.1854,9981.2
198.2024,736
198.2741,540.3
198.283,20.4
198.3078,87.3
198.6101,17.2
198.7174,632.4
198.8177,75
198.8585,135.7
198.8623,4526.9
198.871,373.9
198.8905,167.9
198.9732,80.5
198.9855,23.5
198.9888,243.2
199.0059,295.3
199.0363,58.2
199.0392,88.1
199.069,544.2
199.0756,1827.9
199.0803,58.3
199.1224,486.6
199.1351,61.2
199.1848,273.2
199.189,279.2
199.3288,325.6
199.373,983.3
199.4336,85.9
199.4751,205.5
199.4847,76.4
199.5797,42.3
199.5862,685.8
199.6853,103.9
199.6972,218.5
199.815,513.4
199.8947,94
199.9125,243.4
199.9824,55.9
199.9907,31061.7
199.9953,93.1
200.0251,101.6
200.0408,8456.2
200.0554,195.9
200.0745,141.2
200.1101,7845.3
200.1151,476.9
200.1604,20.5
200.3202,43.4
200.3627,47.9
200.3695,77.2
200.3937,19.4
200.4184,169.8
200.4265,17
200.4386,22.7
200.4837,70.2
200.5193,222.5
200.6408,19.8
200.7145,165.9
200.7453,1193.4
200.7818,59.6
200.8122,101.3
200.8595,879.7
200.8791,348.5
200.8853,42.1
200.8887,67.8
200.894,229.6
200.9681,91.1
201.0041,113.7
201.0267,250.9
201.0548,499
201.0787,19.2
201.0871,45.8
201.1139,44.6
201.1732,143.2
201.3771,53.3
201.4003,276
201.4833,112.9
201.5552,115.3
201.5755,85.3
201.5769,73
201.5779,69.7
201.5854,105.8
201.6222,121
201.7,512.7
201.8232,78.5
201.9391,20.8
201.9469,156.4
202.0885,72.6
202.1227,128.3
202.1628,228.4
202.3522,194.2
202.3643,853.3
202.4348,203.1
202.4435,507.4
202.4905,14027.9
202.5734,203.3
202.7939,306.1
202.9695,85.1
202.9975,73.7
203.0269,275.9
203.032,2449.8
203.0527,1147249.1
203.0768,11993.5
203.1028,64.7
203.1431,123.4
203.1789,927
203.2056,105
203.2864,571.8
203.377,198.8
203.4736,81.6
203.5421,366.3
203.5756,75.7
203.6674,141.7
203.6845,208.8
203.69,132.1
203.7008,289.3
203.7614,208.7
203.8286,47.2
203.8321,904.9
203.946,21.9
203.9513,93.2
203.9763,16.7
204.0244,60268.2
204.056,63835.5
204.0634,308.4
204.0698,327.6
204.0832,272.3
204.1794,52.9
204.2235,304.1
204.2609,51
204.2639,534.8
204.3178,108
204.3429,222.1
204.3448,203.9
204.4159,596.2
204.42,717
204.5707,105
204.5834,664
204.635,116.7
204.7251,329.5
204.7619,234.7
204.8138,645.6
204.8166,672.2
204.8797,68.1
205.0278,904.9
205.0471,385.1
205.0569,8287.7
205.0815,134.6
205.0838,39
205.1575,391.6
205.1653,63.4
205.1948,210.1
205.2308,44.5
205.3005,51.8
205.3469,348.3
205.3953,103.6
205.4329,117.7
205.4459,42
205.4529,603.8
205.5371,130.2
205.5667,86.1
205.583,73.9
205.5861,762.8
205.6733,566.5
205.6967,204.2
205.7463,97.6
205.9101,112.7
206.0556,1310.5
206.1124,57.9
206.1224,63.7
206.1587,72
206.2374,607.9
206.3005,524.9
206.4487,71.7
206.4599,57
206.5325,80.1
206.5949,19
206.7161,121.6
206.729,73
206.7817,55.4
206.8417,159.3
206.8896,481.6
206.894,15311.1
206.9554,49.4
206.9701,88.8
206.9767,77.8
206.9822,3318.3
207.0089,227.9
207.0144,57390.4
207.0442,2944.5
207.0509,7047.2
207.1752,142.9
207.2027,265.6
207.2071,115.4
207.2795,202.5
207.3634,155.7
207.4037,163.8
207.4093,44.3
207.4391,75
207.4808,1030.7
207.4953,471.8
207.5254,1054.6
207.7303,315.5
207.8039,164.1
207.8097,284.2
207.8215,608.9
207.8808,701
207.9904,80.3
207.9953,44.3
208.0138,2062.7
208.0178,1668.3
208.0474,93.8
208.1376,184.3
208.1695,79.4
208.174,195.4
208.3005,61.6
208.3401,90.1
208.3539,713.1
208.5435,708.1
208.5648,43.7
208.6032,272.7
208.6267,878.5
208.6619,130.2
208.8004,50.8
208.8327,331.5
208.8407,46.1
208.8912,9622.2
208.9107,49.4
208.9264,725.8
208.9354,446.5
208.95,425.7
208.9553,27.4
208.9806,393.7
209.0125,2942.6
209.1271,526.7
209.1401,84.8
209.1734,510.8
209.1912,51.2
209.1976,721.1
209.284,225.6
209.3516,111.7
209.4187,20.1
209.4444,52.5
209.5288,101.7
209.5841,77.1
209.6631,41.5
210.0153,45.3
210.6457,630
210.6523,632.9
210.6884,842.9
210.9318,528.1
210.945,284.3
210.9488,342.7
211.0564,458.8
211.0692,1773.7
211.1724,4025.6
211.1754,3164.7
211.1827,26711.5
211.1859,38518.1
211.1894,20835.4
211.2002,2162
211.2037,1016.1
211.4452,285.4
211.748,406.1
211.7636,48.8
212.0194,112.3
212.024,52
212.0654,117.1
212.0743,111.9
212.0765,481.7
212.0977,143.8
212.1073,233.4
212.2111,310.5
212.2615,71.1
212.2737,61
212.2998,126.5
212.341,936.2
212.3725,66
212.5756,235.3
212.6756,878.9
212.7158,136.8
212.7597,327.4
212.8029,159.4
212.8392,1621
212.8537,51
212.8642,208.6
212.8968,332.5
212.9063,117.6
212.9802,269.2
212.9836,117.4
212.9901,20.3
212.9996,814.2
213.0097,166.7
213.0223,88.6
213.0546,939.3
213.1215,656.4
213.1241,82.8
213.1569,372.2
213.1823,221.1
213.2203,19.6
213.2629,319.4
213.3037,59.1
213.3168,89.8
213.3357,650.5
213.4655,222.8
213.4995,19.9
213.5232,19.1
213.5288,61.3
213.5379,113.8
213.6182,163.2
213.645,958.1
213.8699,198.1
213.8951,154.5
213.9621,26.4
213.9848,283.2
214.032,572.9
214.0537,62.8
214.059,12816.8
214.0899,1502.3
214.1003,56.3
214.1613,128.5
214.2366,277.2
214.2667,19.1
214.3094,45.1
214.335,364.3
214.3848,591.8
214.5013,271.9
214.5156,47.4
214.6402,67.2
214.6504,56.8
214.7462,74.1
214.7603,894.2
214.787,362.5
214.8065,85.2
214.8363,1708.4
214.8632,614.7
214.8924,19.7
214.9179,30.8
214.9716,187.6
215.0697,144.4
215.0842,218.3
215.0933,48.5
215.1501,49.7
215.2406,234.7
215.4319,67.9
215.5111,127.8
215.562,93.7
215.5768,307.3
215.593,232
215.5997,48.5
215.6622,263.9
215.6671,325.8
215.6922,417.1
215.7403,694.6
215.822,46.3
215.9031,280.6
215.94,362.1
215.964,187.5
216.0148,6972.7
216.0178,1045.8
216.0432,56.5
216.0633,152.1
216.118,19.2
216.1899,86.2
216.228,908.7
216.3199,612
216.4752,61.3
216.4995,956.4
216.7246,19.4
216.7663,51.2
216.8083,804.7
216.8959,81.1
216.9229,34609.2
216.9406,935.2
217.0559,192
217.0855,60.4
217.0897,820.5
217.1135,73.7
217.2001,89
217.2548,373
217.3017,109.9
217.3151,60.2
217.3536,297.1
217.3636,786.7
217.4804,54.1
217.5077,291
217.5208,186.6
217.5413,461.5
217.5783,278.3
217.6145,440.1
217.6185,755.4
217.6641,83.8
217.7198,44.5
217.7261,193.7
217.8546,182.6
218.1518,90.8
218.4099,174.8
218.4331,51.3
218.4371,52.9
218.4545,57.1
218.4896,71.2
218.4976,188.8
218.5115,62.8
218.6037,156.2
218.6142,116.9
218.6514,427.9
218.6783,84.8
218.7547,733.9
218.7699,312.4
218.828,60.6
218.862,452.2
218.8964,176.2
218.9199,10046.2
218.941,57.3
219.0181,853.3
219.0267,1389688.4
219.0326,433.5
219.0364,64.6
219.0829,1078.9
219.1127,856.4
219.1762,61.4
219.1963,20.2
219.2804,615.1
219.3723,93.6
219.3952,50.9
219.4343,19.8
219.6288,114.8
219.7572,71
219.7711,62.1
219.7807,154.8
219.9122,66.8
219.9984,577.8
220.0118,143.2
220.03,70567.1
220.0372,532.4
220.0669,6878.7
220.0766,50.4
220.0885,320.9
220.152,455.3
220.1674,363.3
220.2783,269.9
220.3262,189.5
220.473,75.8
220.762,75.4
220.789,767.6
220.8008,508.3
220.9347,54.8
221.0248,86734.8
221.031,9018.8
221.0478,99.8
221.0511,1620.5
221.0844,148.7
221.119,236.6
221.147,160.7
221.1558,85.2
221.1825,107.4
221.268,284.5
221.3053,124.5
221.38,111.4
221.3978,150.2
221.6196,46.8
221.7075,51.8
221.7518,46.8
221.7552,665.4
221.7863,57.6
221.8084,88.9
221.8272,147
221.8852,59.1
221.9564,93.7
221.9608,53.3
221.9897,70.6
222.0281,404.7
222.0333,353.2
222.0398,100.4
222.046,178.1
222.0888,43.6
222.1002,74.2
222.3056,130.7
222.4001,22.5
222.5198,352.6
222.569,63.5
222.6016,50.2
222.7241,502
222.7855,69.1
222.7979,132.4
222.8112,175.1
222.8623,127.9
222.868,13130.2
222.8888,389.8
222.8928,588.4
222.899,71.5
222.9267,263.3
222.9549,60.4
222.9633,69.8
222.9839,491.2
222.9883,6537.4
223.0034,122.7
223.0393,165.7
223.064,27
223.1012,346.6
223.1594,116.2
223.1846,50.3
223.2568,98.2
223.2917,18.5
223.3175,91.2
223.3271,1064.2
223.3312,46
223.5205,79.5
223.5422,200
223.5579,110.9
223.5616,41.8
223.5917,226.2
223.6305,641.8
223.6844,888
223.7057,169
223.8726,17.5
223.8793,98.4
223.8897,226.1
223.8985,133.2
223.9535,22.5
224.0026,19.9
224.0298,957.5
224.0349,315.6
224.2131,308.6
224.2919,143.4
224.5768,136.6
224.6233,310.3
224.6923,298.8
224.7688,20.3
224.8007,38.7
224.8445,19.2
224.865,8812.2
224.9451,357.2
224.9667,814.3
224.9714,24.7
224.9808,193
225.0374,75.5
225.0548,30797.5
225.079,145.5
225.0848,457
225.0967,207.1
225.1632,65.3
225.1741,59.6
225.2284,721.5
225.296,556.4
225.3264,72.8
225.3318,176.6
225.3569,104.2
225.4044,352.2
225.425,21.1
225.4422,96.4
225.5007,215
225.5554,716.3
225.6382,428.5
225.952,52
225.9903,754.2
226.0024,473
226.0066,787.9
226.0244,5260.4
226.0451,3023.4
226.058,373.3
226.0644,49
226.1862,50.4
226.2826,943.9
226.2999,884.7
226.3244,431.5
226.3369,113.1
226.3733,322.9
226.5117,287.9
226.5702,340
226.623,53.6
226.8499,141.2
226.9516,13863.9
226.9615,161.1
227.0341,1573.6
227.0712,88
227.0791,1406.6
227.0865,155.6
227.1104,53.5
227.1114,52.7
227.2586,460
227.3656,210
227.4076,200.5
227.4129,226.9
227.4368,808
227.5581,63.5
227.8894,71.6
227.919,694.8
228.0002,146.6
228.0187,593.3
228.0221,212.4
228.0326,433
228.061,175.2
228.1281,319.2
228.1499,105.6
228.4734,192.1
228.5528,108.1
228.6051,55.3
228.8131,453.5
228.9289,486.8
228.9637,44.8
228.981,20.8
229.0109,338.9
229.1182,55.2
229.1336,908.4
229.1772,120.2
229.2215,110.1
229.2645,244
229.2713,105.8
229.2815,57.2
229.2948,102.1
229.2966,190.6
229.4697,511.4
229.5134,139.3
229.5576,67.9
229.5758,61.8
229.6628,704.4
229.6917,820.1
229.6981,438.7
229.7654,63.6
229.9292,75.9
229.9571,102.7
230.0057,208.4
230.0338,205.6
230.0463,19
230.1053,836.2
230.1576,362.4
230.2253,241.2
230.265,56.5
230.3164,628.7
230.5255,96.4
230.5746,467.2
230.7182,145
230.8102,551.5
230.9881,200
230.9909,24.2
231.0558,988.7
231.0677,304.5
231.1971,184
231.2489,844
231.3438,660.2
231.4217,789.1
231.4435,49.2
231.6491,48.4
231.7364,348.9
231.814,243.6
231.8308,200.8
231.9955,125.9
232.0567,55.7
232.097,125.1
232.1246,699.2
232.212,99.9
232.2766,290.7
232.3156,161.3
232.517,97.8
232.6202,21.5
232.6368,57.7
232.6833,202.9
232.7368,221.3
232.7498,172.9
232.8968,32082.3
232.9857,475.8
233.0226,180.1
233.051,13457.7
233.0645,441.5
233.0884,316.2
233.152,40.4
233.1644,89.9
233.2214,211.1
233.4697,227
233.4774,81.2
233.6541,72.6
233.8551,302.3
233.8656,44.3
233.8815,815.5
233.8851,223.6
233.9806,164
234.038,325.5
234.0552,225.5
234.0779,21.5
234.1014,124.6
234.1272,246.4
234.1478,151.9
234.1601,67.5
234.181,18.9
234.1852,45.8
234.2096,142.1
234.211,140.7
234.2563,431.6
234.3113,99.6
234.5549,120.2
234.727,70.2
234.8209,46.2
234.8937,7155.8
234.9818,4317.1
234.9895,101.8
235.057,474.6
235.0666,4139.1
235.0926,9085.3
235.1236,343.8
235.2707,49.8
235.3594,187.2
235.499,168.9
235.5359,820.8
235.645,214.1
235.6628,79.5
235.7293,155
235.7633,287.9
235.7757,546.8
235.8119,18.3
235.9221,62.1
235.9708,95.2
236.041,1122.5
236.0717,41794.2
236.0771,789.4
236.096,63
236.1623,616.9
236.2486,250.6
236.4959,54.4
236.6004,91.6
236.6679,223.1
236.6868,77.8
236.6918,17.9
236.8761,439.5
236.9567,128.2
237.0345,90.7
237.0709,208.6
237.0752,1464.2
237.1972,292.4
237.2644,111.1
237.3083,54.9
237.3248,151.8
237.357,139.3
237.3967,131.6
237.4099,319.2
237.4354,111.7
237.4597,92.7
237.4636,479
237.6038,69.1
237.7018,16.2
237.7493,127.4
237.7614,285.5
237.7882,66.4
237.7949,787.4
237.8175,382.9
237.825,1261.3
237.9444,113.6
237.9946,217.9
238.0144,97.4
238.0266,63.8
238.0417,95.9
238.0676,342.6
238.0765,21.5
238.2978,592.1
238.4924,80.9
238.5024,418.5
238.6953,422.3
238.7386,46
238.7723,113.3
238.842,3856.6
238.853,782.6
238.8627,325.1
238.8748,1326.5
238.9422,863
239.0509,17.7
239.0552,113.8
239.0636,408.8
239.0682,1521.6
239.0718,27.8
239.125,18.6
239.1895,314.6
239.1962,64.3
239.2468,828.3
239.2646,415.5
239.336,51.8
239.5461,234.2
239.6046,61.1
239.6624,690
239.7254,63.8
239.8863,316.9
239.8984,465.4
239.914,84.4
239.9899,139.1
240.0246,74.7
240.0538,177.5
240.2727,54.6
240.3535,624.9
240.4025,94.4
240.4702,251.3
240.5061,203.4
240.5505,922.1
240.6504,200.5
240.7257,87.6
240.7852,847
240.7998,18.6
240.8392,2813.2
240.9663,626.4
241.0498,74.2
241.0674,310.1
241.1693,350
241.5506,193.3
241.573,95.8
241.5965,58.2
241.6376,138.5
241.8554,500
241.8666,96.3
241.9796,41.1
241.9982,490.4
242.008,42.8
242.0193,1599.8
242.0669,350.2
242.147,56.8
242.2244,189.4
242.265,694.7
242.3081,89.9
242.3814,147.2
242.4601,302.9
242.4894,113.4
242.5454,136.9
242.5891,702.5
242.6249,56.2
242.6377,279.7
242.9256,8370.5
242.9368,111.3
243.0065,57.7
243.0323,868.4
243.0531,12237.7
243.0653,13503.6
243.1666,665.7
243.307,50.9
243.3307,45.9
243.3752,367
243.3809,85.2
243.4035,111.6
243.4163,95.9
243.4555,115.8
243.4772,50.6
243.5015,149.1
243.5122,1306.1
243.5338,173.5
243.7599,585.5
243.8461,165.3
243.9672,512.1
243.9726,134.3
244.0069,826.9
244.0125,397
244.049,23.1
244.0569,209.1
244.0684,62.1
244.1332,668.6
244.1441,234.2
244.4253,50.9
244.4279,252.8
244.4413,896.1
244.5183,75.6
244.5667,146.1
244.5738,312.6
244.5942,22.6
244.7541,543
244.8708,2677.3
244.8754,51
244.9471,613.9
244.9628,788.5
245.0717,153.9
245.2926,59.1
245.394,53.8
245.3978,347.9
245.5468,60.1
245.5643,288.3
245.574,327.8
245.6675,127.5
245.6833,192.5
245.8027,252.1
245.9495,976.6
245.9838,127.3
246.0014,35.3
246.058,72.8
246.2625,47.5
246.2945,285.1
246.3011,62.6
246.3427,144.2
246.5597,134.3
246.7831,67.9
246.8271,175.1
246.8279,173.9
246.9492,158.8
247.0033,17.7
247.0118,106.2
247.0367,671
247.0427,106
247.0668,2372.3
247.0927,5129.2
247.1204,88
247.1489,213.7
247.3968,53.2
247.4494,66.6
247.4926,680.6
247.5464,386.9
247.6286,68.1
247.7285,857.2
247.7489,160.1
247.7601,225.1
247.8532,406.1
247.938,195.9
247.9732,67.7
248.0827,62.7
248.0892,50.9
248.0962,84.2
248.1242,5228.2
248.284,159.2
248.3434,90.8
248.351,92.9
248.633,100.2
248.6713,112.4
248.7238,146.4
248.8091,21.9
248.8645,187.6
248.8708,8581.5
248.9142,125.4
248.92,54.4
248.9595,497.1
248.9994,479.6
249.0161,1609.2
249.0613,9654.7
249.0735,53.5
249.1043,276.9
249.112,130.2
249.1273,78.5
249.1717,23
249.1848,1091.2
249.1967,87.2
249.2178,141.4
249.2319,58.5
249.4699,40.1
249.5044,218.4
249.5723,102.3
249.5776,91.4
249.6696,427.7
249.7537,40.1
249.8071,461.9
249.8611,62.3
249.8953,432.6
249.9095,60
249.9253,149.9
250.0137,71.9
250.0646,405.7
250.1208,266.5
250.2632,81.5
250.4697,100.7
250.5231,132.3
250.5287,179.7
250.7143,602.1
250.8677,1201.6
250.8834,124.1
250.9176,907.4
250.9204,2613.6
250.9559,1081
250.9633,685.9
251.0342,1019.2
251.0727,514.5
251.0906,39.7
251.1134,457.6
251.1247,147.8
251.1347,65.1
251.3148,262.5
251.4136,81
251.4226,448.7
251.5264,271.8
251.5399,406.6
251.5474,667.9
251.7509,911.1
251.7858,89.3
251.8641,169.1
251.8882,91.8
251.893,82.2
251.9751,313.3
252.0363,98.3
252.0457,99977.1
252.1111,332.6
252.1285,70.7
252.1475,124.3
252.1753,292.3
252.2224,17.3
252.2631,45.5
252.289,222.2
252.3132,250
252.3732,104.5
252.5209,92.9
252.6372,875.4
252.6479,747
252.6629,21.4
252.6728,66.3
252.6782,642.3
252.7024,41.7
252.8957,186.7
252.9177,582.2
252.9917,610.1
253.0219,68.9
253.049,6180.8
253.0668,358
253.0786,138.5
253.209,82.5
253.219,136.8
253.2662,167.5
253.3072,815.4
253.3964,98.4
253.4186,51.8
253.5668,195.8
253.5804,73.4
253.5856,92.9
253.6036,739
253.7064,465.7
253.754,21.2
253.797,71.9
253.8289,504.5
253.9849,169.2
254,53.7
254.0209,837.2
254.0437,3557.5
254.0504,22.8
254.0623,90.3
254.0877,642.6
254.1952,91
254.2417,93.5
254.2844,65.9
254.3265,23.2
254.4366,46.2
254.5775,438.1
254.5919,100.5
254.6059,882.5
254.613,892.8
254.703,57.2
254.7929,395.8
254.8159,1908
254.8241,4980.9
255.033,24820.4
255.0377,1364.3
255.0464,972.4
255.0515,154.2
255.0848,865.8
255.136,810.4
255.1685,216
255.2108,54.7
255.2536,56
255.3418,268.4
255.4576,170.1
255.4736,257.3
255.4818,263.4
255.639,81.4
255.6497,119.8
255.7341,59
255.9012,318.7
255.9759,134
256.0338,52.6
256.0527,363.9
256.0665,89.9
256.104,70.7
256.1108,104
256.3686,952.3
256.4436,49.9
256.4779,58.1
256.6317,202.3
256.6597,153.8
256.7556,225.1
256.8128,1233
256.821,8229.8
256.8892,369.3
256.8944,192.3
256.9499,155.2
256.9572,254.7
256.991,87.9
257.0435,55.7
257.0485,7448.4
257.065,402.5
257.0746,52916.1
257.1219,592.6
257.2318,95.9
257.3055,64
257.3916,676.3
257.4804,74.3
257.4912,46.2
257.5733,583.1
257.5901,72.3
257.6085,153.3
257.6147,465.7
257.6521,161.5
257.7943,74.3
257.805,341.3
257.8294,132
257.8389,129.3
257.9114,96.8
258.0283,144.7
258.0523,115.8
258.074,52.6
258.078,2183.9
258.0885,63.1
258.0947,345.4
258.1103,19064
258.1376,207.9
258.1424,50.7
258.1862,479.1
258.2547,64
258.5021,24.5
258.5795,46.9
258.7502,21.5
258.8182,3501.7
258.8601,87.8
258.8954,111.5
258.9738,525.5
259.0093,110.9
259.0464,190.6
259.0593,180
259.106,20.1
259.1135,42.7
259.4416,65.3
259.4728,724.2
259.5017,361.1
259.512,191.7
259.5245,836.6
259.6536,350.7
259.7048,62.4
259.799,49.1
259.8883,922.1
259.8923,149.3
259.9241,343.8
260.0114,116.1
260.0175,23.7
260.0847,63.9
260.1405,67
260.3447,121.9
260.3597,67.4
260.4357,342
260.4921,869.2
260.7309,49.5
260.7416,18.2
260.7491,65
260.8098,40
260.9004,182.1
260.9301,840.8
260.9491,6898.3
261.0008,82.4
261.0459,767.4
261.0503,172.1
261.0767,66.5
261.094,45.6
261.1404,65.4
261.1736,146.1
261.2065,113.8
261.2364,743.6
261.3566,51.5
261.424,19.1
261.4536,316.9
261.8047,34.3
261.8075,119.3
261.8747,18.3
261.9821,90.7
262.0347,653
262.0734,92.2
262.117,952.4
262.1769,428.3
262.2052,142.7
262.2432,411.6
262.2721,121.7
262.3011,61.2
262.3145,793.7
262.3605,84.2
262.4031,693.2
262.4066,370.9
262.4143,117.5
262.4422,143.7
262.4854,56.4
262.514,65
262.5741,45.6
262.6865,224.3
262.7263,209.4
262.7452,91.2
262.7712,20.7
262.781,21.6
262.8883,135.1
262.9117,486.7
262.9462,1500.9
262.9633,898
262.9842,53.2
263.0268,46.2
263.0566,242.4
263.0851,570.9
263.0977,17.5
263.3074,57.7
263.3405,272.8
263.4125,796.4
263.4561,679.8
263.5848,345.9
263.7152,43.1
263.7428,82.4
263.7684,460.8
263.8018,189.4
263.903,100.2
263.9437,17.4
264.0028,158.8
264.022,255.7
264.0563,74.4
264.0845,366.1
264.3279,416.3
264.5825,61.2
264.6688,96.5
264.7217,307.1
264.8046,462.2
264.8448,1093.1
264.8529,4439.8
264.9229,140.5
264.9338,1043.4
264.9732,501.3
264.9884,740.3
265.0161,60.4
265.0352,6740.7
265.0475,4271.5
265.1421,60.2
265.1639,606.1
265.4265,52.6
265.4438,114.8
265.4628,344.6
265.5404,58.2
265.7772,101.6
265.801,52.1
265.8082,468.1
265.9791,21
266.0052,153.8
266.0473,179.8
266.283,53.7
266.2981,506.5
266.3053,162.9
266.3679,52.7
266.5169,411.9
266.5384,51.7
266.6323,878.5
266.6397,813.5
266.7843,638.5
266.7899,43.4
266.8499,6006.2
266.8781,143.2
266.8944,1605.6
266.9152,62
266.9361,379.3
266.975,120.8
267.0132,45.9
267.0345,67.6
267.0504,438
267.108,200.3
267.1309,622.9
267.243,844.5
267.2841,36.3
267.3818,56.1
267.3834,73
267.3949,702.2
267.4201,898
267.4734,54.7
267.4949,187.8
267.7304,146.7
267.7808,666.2
267.7847,659.3
267.8281,168.8
267.8372,756.7
267.8417,128.4
267.9376,64.5
267.9935,28.9
268.0319,46.8
268.0922,64.2
268.2134,123.3
268.231,120.2
268.256,450
268.2723,212.8
268.5971,60.7
268.7387,96.7
268.7523,382.3
268.8146,83.2
268.8256,266.2
268.8919,1598.5
268.9162,88.2
268.9572,66.6
268.9964,844.7
269.0311,222
269.0449,21519.7
269.0487,43806.9
269.1053,85.3
269.2636,245.1
269.4626,52.3
269.4893,70.7
269.5025,90.9
269.5521,714.9
269.7367,234.4
269.8563,209.1
269.9517,32
269.989,19.3
270.0249,580.2
270.0404,70.1
270.0474,20905.7
270.1053,308
270.1453,54.7
270.2855,52
270.2973,662.5
270.3197,83.7
270.3808,730.1
270.4039,78
270.4476,799.5
270.5193,704.3
270.5495,313.1
270.6328,691.9
270.7633,665.3
270.7979,3051.5
270.978,7571.2
271.0015,839
271.0067,18.5
271.0239,368.5
271.0328,89.9
271.0387,66.2
271.0508,720.4
271.0642,366.9
271.0779,759.3
271.0903,2505.7
271.3964,61.4
271.5856,51.3
271.5985,51.4
271.6492,69.8
271.8059,134.7
271.8462,52
271.9236,84.2
271.9559,81.8
271.9644,862.1
272.0432,74.1
272.0535,48.4
272.0806,213.6
272.0898,37.5
272.1062,78.2
272.2354,550.4
272.416,279.2
272.4462,48.1
272.622,73.8
272.64,664.6
272.7333,188
272.7786,303.9
272.7952,2524.9
272.8966,529.5
273.0486,3516.7
273.1269,225.6
273.1421,281.5
273.4394,609.8
273.448,91.4
273.6212,165.3
273.6715,171.3
273.6781,53.5
273.7704,120.9
273.9057,302.7
274.0187,663.5
274.035,228.9
274.0402,21.7
274.0694,23.6
274.0838,127.2
274.0925,220.1
274.0996,64.7
274.2906,162.4
274.35,67.8
274.3958,392.2
274.444,82.6
274.4724,39.5
274.4873,40.9
274.4935,21.1
274.5299,18.3
274.7036,55.3
274.7253,92.5
274.792,1862.8
275.0633,285.3
275.2151,127.2
275.2729,509
275.2911,19.8
275.3249,127.4
275.3538,219.7
275.3616,519.7
275.5394,422.5
275.5444,18.4
275.6056,319.4
275.8609,169.9
275.9393,459.7
276.0035,62.9
276.0501,73.5
276.1221,392.9
276.2527,90.4
276.3243,18.5
276.489,478.6
276.5256,54.1
276.6309,793.7
276.7038,153.8
276.7215,139.7
276.7886,377.4
276.9231,5138.1
276.998,61.4
277.0477,73.7
277.2747,314.6
277.3933,72.6
277.4682,151.7
277.5347,72.4
277.7163,290.4
277.8061,361.1
277.9222,88.9
277.9395,57.6
277.9668,129
278.0003,97.8
278.019,336.6
278.049,192.2
278.0899,116.5
278.1215,110
278.3223,68.4
278.335,244
278.4703,808.5
278.6272,86.3
278.6698,63.7
278.7661,202.4
278.8797,75
278.9125,238.2
278.987,2154.2
279.0144,51.8
279.0416,60.5
279.0566,52998
279.2157,1121.4
279.3252,63.7
279.4424,745.7
279.6458,266.5
279.7167,440.3
279.7472,44.9
279.8178,127.8
279.8511,131.8
279.8629,622.4
279.9075,501.2
279.9425,105.1
279.9505,121.9
279.9619,771.1
279.9973,52.7
280.0158,175.9
280.06,1861.1
280.2815,129.6
280.2903,251.6
280.3821,76.7
280.4303,69.7
280.4429,399.4
280.5048,566.9
280.5189,220.3
280.5211,328.8
280.5222,320.6
280.5483,486
280.5562,654.3
280.5822,218.6
280.7721,115.1
280.8066,180.4
280.8269,3083.9
280.8467,128.2
280.8718,399.1
280.9453,65.9
280.9497,69.5
280.9623,707.8
281.0092,438.6
281.0322,134.3
281.0512,247.8
281.071,822
281.1936,64
281.224,325.6
281.2464,707.3
281.3618,91.9
281.4321,391.8
281.4911,74.2
281.6144,807
281.7466,238.1
281.908,98.3
282.0152,97.2
282.0658,724.5
282.1435,54.8
282.2422,713.9
282.4307,477.7
282.5538,290.6
282.8239,1583.6
282.8307,79.8
282.8688,368.2
282.9055,45
283.0253,295.5
283.0862,307.8
283.1137,441.9
283.1348,980.3
283.1888,223.3
283.5267,17.7
283.5392,206.1
283.8742,60.3
283.9651,65.4
284.0632,265.8
284.0874,89.9
284.132,84.3
284.2638,294.3
284.3272,798.9
284.6116,244.4
284.6291,97.6
284.6352,113.3
284.6469,424
284.6576,167.8
284.7041,67.1
284.7249,60.2
284.7509,275.6
284.7793,19.3
284.9019,75.7
284.9378,214.2
284.9459,426.4
285.0159,402.6
285.0232,691.6
285.0399,211.6
285.1224,773.4
285.1904,160.4
285.2091,454
285.2343,48.9
285.2628,57.1
285.3299,383.4
285.4374,303.7
285.6568,173.2
285.6869,336.5
285.7302,76.2
285.7991,26.5
285.9313,679.6
286.0048,440.7
286.0226,637.3
286.096,65.8
286.1764,141.7
286.1779,156.7
286.2322,769.4
286.3061,43.8
286.4175,777.1
286.4871,208.2
286.5842,61.2
286.6017,151.2
286.7717,2238.8
286.8365,183.9
286.9519,2200.5
286.9982,25.6
287.0554,49617.5
287.3443,65.2
287.5608,965
287.7063,272.8
287.8012,107.8
288.0116,150.5
288.0587,1613.4
288.0764,198.3
288.0851,62.1
288.1556,9535.5
288.1881,54.5
288.3489,85.5
288.3681,53.8
288.3739,47.6
288.4577,438.2
288.5275,685.8
288.7691,2953.6
288.7788,206.6
288.8355,269.6
288.837,281.6
288.8673,1174.5
288.8754,1551.1
288.8796,2613.9
288.8873,2775.5
288.8926,5900.8
288.8973,5692.4
288.9048,6936.1
288.911,6464
288.918,13094.2
288.9217,13808.7
288.9276,16669
288.9345,19806.9
288.9382,15402.7
288.9406,14497.6
288.947,16185.9
288.9523,13737.5
288.9582,17120.5
288.9612,13417.2
288.9677,14565.2
288.9733,9563
288.9762,9637.5
288.9815,9280
288.9916,3556.6
288.9953,4487.3
289.0004,4645.9
289.0221,133.1
289.0265,815.2
289.0616,1417.8
289.1425,350
289.1518,768.5
289.1589,80.5
289.2,92.7
289.2245,58
289.3951,99.9
289.4186,612.2
289.6,206.6
289.6113,187
289.6793,490.2
289.78,384.9
289.7934,211
289.8899,626.2
290.1006,25.6
290.1475,123.8
290.2002,758.9
290.4227,471.5
290.5167,122.7
290.5498,316
290.5789,56.8
290.647,357.2
290.7355,346.5
290.9451,66.3
290.9942,52.4
291.0268,1061.6
291.0493,217.4
291.0674,218.5
291.6192,281.9
291.6759,20.7
291.6957,39.6
291.7729,184.8
291.8426,70.8
291.9423,37.7
291.9832,477.5
292.0055,18.6
292.053,88.2
292.1031,69.3
292.4632,20.9
292.7758,220.6
292.8495,72.5
292.8972,952.4
292.9841,79.8
293.0723,3788.9
293.0982,350756.5
293.1268,46.1
293.1796,1005.1
293.4274,66.3
293.4736,106.9
293.7033,220.2
293.7073,47.3
293.7401,253.3
293.8911,121.8
294.0095,51.8
294.0953,745.3
294.1016,31424.6
294.1426,318.8
294.151,241.1
294.2323,74.5
294.3087,112.7
294.3351,48.8
294.4703,93.1
294.5216,95.5
294.6288,83.2
294.6657,53.5
294.9742,62.9
294.9831,667.9
294.9906,282.9
294.9978,792.9
295.0237,269.4
295.0307,2165.4
295.1022,1802.6
295.1946,11183.4
295.2111,309.3
295.2632,89.4
295.293,22.2
295.3294,70
295.3585,60.2
295.4545,164.4
295.6154,434.2
295.8866,20.1
295.9025,154.2
296.1975,79.4
296.2981,184.7
296.3238,94.2
296.34,203.6
296.3613,104.6
296.7157,79.8
296.7617,404
296.8016,395.1
296.8639,153.7
296.9166,802.1
296.9593,190.1
296.9874,162.2
296.9971,38.3
297.067,355.5
297.083,73.6
297.2288,51.4
297.2613,77
297.3937,166.2
297.4405,128.4
297.5473,656.4
297.5564,55.5
297.5713,80.5
297.6752,18.4
297.6817,119.4
297.6907,448.2
297.7125,367.7
297.7718,433
297.8845,513
297.9225,707.5
297.9494,112.5
297.9834,283.2
298.0423,24264.9
298.2872,108.2
298.4,132.2
298.6428,53.2
298.9725,185
298.9866,80.5
299.0108,93.5
299.0362,345.1
299.0457,926.6
299.1307,130.7
299.1396,560.2
299.1592,193.5
299.1855,700.7
299.351,91.7
299.4987,343.9
299.5537,63.5
299.5722,74
299.6042,757.7
299.6443,18.1
299.6593,194.7
299.6736,165.1
299.8087,915.9
299.8157,173.7
299.8348,735.6
299.8569,304
299.9361,120.5
300.0074,51.6
300.0384,207.5
300.0491,33.7
300.0758,447.6
300.1034,276.1
300.197,96.7
300.2294,95.6
300.2601,188.8
300.3157,104.4
300.5229,305.7
300.5822,126.5
300.783,58.3
300.9563,504.5
301.0385,21963.9
301.0654,455.9
301.0791,37.9
301.1008,592
301.1151,646.5
301.1182,604.7
301.1412,483
301.1785,101.7
301.2116,861.5
301.2197,493.3
301.2978,50.4
301.3297,89.4
301.3675,43.8
301.3878,54.3
301.4024,216.9
301.4461,155.8
301.4724,115.1
301.5129,230.2
301.5904,96
301.6386,114.4
301.6838,20.1
301.7479,716.9
301.8954,96.4
301.9943,70.9
302.008,117.2
302.0199,233.1
302.0354,68.1
302.0414,248.9
302.0484,92.6
302.0642,3330.8
302.0739,26.5
302.087,52.8
302.1448,65.7
302.2083,485.9
302.3771,18.9
302.5244,180
302.5732,224.5
302.6084,376.7
302.692,248.1
302.6996,692.1
302.7068,796.9
302.7305,106
302.7466,266.7
302.8294,2410.3
302.9263,94.6
303.0242,115.3
303.0675,204.2
303.077,509.8
303.1133,59.8
303.1423,546.4
303.1827,624.7
303.2317,93.3
303.2795,148.1
303.3455,669
303.3599,48.2
303.6729,619
303.7529,232.7
303.8676,42.6
304.06,48.3
304.0709,18.4
304.1243,174.6
304.2306,93.9
304.5414,655.4
304.5911,570.2
304.612,302.6
304.6172,18.6
304.6918,111.5
304.7429,518.5
304.8093,964
304.8265,642.8
304.8895,333.5
304.9629,270.2
304.9746,400
305.0766,146
305.1069,124.6
305.2315,627.4
305.406,468.5
305.5218,18.6
305.626,124.3
305.6982,94.5
305.8789,53.2
305.8832,188.2
305.9537,84.3
306.0954,86.7
306.1591,344
306.3614,62
306.4408,586.8
306.6411,298.8
306.682,779.2
307.0012,64
307.0054,290.9
307.0682,84.1
307.1406,269.6
307.1839,266.6
307.3173,185.7
307.3454,373.4
307.3642,103.4
307.4779,238.5
307.5968,213.1
307.6176,20.4
307.8564,19.5
307.8741,44.9
308.0275,58.9
308.2687,652.3
308.275,165.3
308.3123,180.9
308.4767,64.6
308.5562,651.5
308.7142,178.4
308.7594,291.3
308.8335,94.4
308.8494,477.7
308.8793,1917.1
308.9134,567.5
309.0064,136.7
309.0303,176.5
309.0374,4763.7
309.2112,160.4
309.3855,973.1
309.397,127.5
309.4,129.2
309.5028,38.1
309.5577,753.7
309.6458,967.8
309.679,55
309.7359,76
309.9643,67.6
310.1916,306.2
310.2157,150.8
310.3548,202.7
310.3596,83.8
310.3678,106.6
310.3859,227.3
310.6926,191
310.8585,88.6
310.8763,2292.3
310.8833,56.1
310.9868,55.9
310.9979,98.7
311.0032,124.7
311.1711,40.9
311.2106,46.9
311.3535,264.9
311.3943,833.2
311.4372,219.2
311.452,90.3
311.5187,357.7
311.5819,55
311.632,19.2
311.6456,688.3
311.7078,62.8
311.8924,238.1
312.1648,54.3
312.3812,901.2
312.7009,38.8
312.8737,447.1
312.8792,506.7
313.0018,31.4
313.0324,97.4
313.1568,62.1
313.245,118.3
313.274,31019.1
313.3445,130.7
313.4986,51.3
313.5239,196.2
313.747,472
313.8911,65.5
313.9768,21.7
314.0147,359.9
314.0913,402
314.1075,76.7
314.2775,4738.4
314.2944,71.8
314.4768,103.3
314.5914,275
314.7066,76.4
314.7795,489.3
314.8368,4547.2
314.9647,895.2
314.983,52.8
314.9913,483.1
314.9991,3833.8
315.0181,33.1
315.0289,77.3
315.0433,78.2
315.0551,11522.7
315.067,24639.5
315.0691,27034.6
315.0802,6965815.5
315.0898,11987.9
315.0965,3430.5
315.0983,3488.3
315.1069,805.4
315.1178,208.6
315.1613,3550.6
315.2419,57.4
315.254,52.1
315.2593,84.1
315.3236,4977.2
315.3807,459.6
315.4079,831
315.4317,658.5
315.464,106.4
315.5275,770.3
315.5393,68.3
315.5813,82.1
315.6205,461.3
315.7069,59.4
315.7218,148.5
315.8347,103.8
315.8881,176.1
315.9758,25.2
316.0082,80.1
316.054,785.5
316.0684,1612.9
316.0774,38772.3
316.0835,711204.7
316.0933,121.1
316.1238,853.6
316.1433,56.5
316.1597,132.3
316.1644,216.7
316.2293,132.6
316.374,239.8
316.406,283.7
316.6583,225.8
316.6983,909.6
316.7256,328.5
316.7765,464.9
316.8437,41.6
316.8536,775.1
316.8666,906.4
316.8763,70
316.9126,789.5
316.9361,71.4
316.986,1027.8
317.0563,8116.9
317.0651,2516.2
317.0714,68.5
317.0841,83319.3
317.1588,105.1
317.1786,775.3
317.2985,207.8
317.3069,69.9
317.3382,190.5
317.3475,76.1
317.6117,154.2
317.8155,48.6
317.886,397
317.9146,139.3
318.0273,90.4
318.0596,574.1
318.0877,7182.8
318.1274,65.2
318.1606,659.8
318.1763,388.1
318.1872,112
318.6551,209.2
318.6969,66.9
318.7544,310.9
318.8035,1556
318.8163,95.2
318.8463,89.5
318.9077,438.7
318.9578,319.9
318.9882,106.9
319.1043,134.3
319.1323,51
319.1946,26524.2
319.3113,108.8
319.5201,68.2
319.6261,99.7
319.7423,123.5
319.7477,204.5
319.8527,44.4
319.8595,154.9
319.8649,889.1
319.9755,758.2
320.0344,559.8
320.0746,86.8
320.1984,2327.4
320.2586,2535.8
320.2678,83.5
320.2759,111.4
320.4785,689
320.5137,878.1
320.5732,134.2
320.6356,111.4
320.6715,127.8
320.687,387.3
320.7214,69.7
320.8005,1086.5
320.9502,725.1
321.0854,89.4
321.1759,53.7
321.1984,674.3
321.2103,27280.8
321.2621,142.8
321.291,581.3
321.3732,81.4
321.4188,157.8
321.5683,380.6
321.843,233.4
322.0091,213.9
322.2141,456
322.3549,20.5
322.4155,85.2
322.4338,889.3
322.8748,65.8
323.0113,918.3
323.0205,8431
323.1444,148.5
323.2257,276.6
323.2553,128.1
323.3126,86.9
323.3504,527
323.4275,208.9
323.6484,432.7
323.6601,436.2
323.9179,154.8
324.0018,867.6
324.0665,805.8
324.0786,95.8
324.2541,294.1
324.3133,64.3
324.4653,105.8
324.5739,636.6
324.5902,6960.7
324.5979,2256.2
324.6086,279
324.627,229.5
324.7211,136.9
324.8087,668.2
324.8532,2125.2
324.8758,324.3
324.9192,49.5
324.9297,447.6
324.997,117.1
325.1886,839.6
325.2116,2348.9
325.3804,100.6
325.6369,136.3
325.7463,271
326.0046,58.3
326.0111,236.3
326.0218,159.8
326.0578,57.5
326.119,71.6
326.2466,88.4
326.6496,47.9
326.6888,60.1
326.6952,64.2
326.7435,17.4
326.7579,17.1
326.8502,1146.1
326.9452,84.6
326.9756,113.5
326.9826,213.2
327.0153,717.6
327.0788,45.2
327.0925,134.2
327.2154,596
327.2273,7251.6
327.4109,59.7
327.4375,226.8
327.5623,86.6
328.0723,91.5
328.1184,295.3
328.2069,85.6
328.3626,54.9
328.4219,93.2
328.4297,473.9
328.4485,1190.3
328.4578,92.9
328.681,69.7
328.6907,914.7
328.9953,1082.1
329.0504,288.8
329.0855,19.6
329.0961,1238.4
329.1075,79.9
329.1963,18.8
329.2257,137.5
329.2368,81
329.2689,70.3
329.3898,81.3
329.4127,94.8
329.4677,62
329.5005,227.4
329.9075,22.7
330.0098,390.3
330.0513,223.2
330.0591,317.8
330.0688,36.2
330.1569,305.6
330.4579,788.6
330.549,21.1
330.6182,85.8
330.6639,233.2
330.7274,17.8
330.9034,68.2
330.9953,60.9
331.0197,1084.4
331.0453,171553.8
331.0541,974995.3
331.1411,170.4
331.192,51.4
331.2924,171.3
331.4036,159.8
331.4455,129.8
331.504,42
331.5484,305.8
331.6104,161.4
331.8392,724.5
332.0483,11156.2
332.0575,87879.2
332.1644,852.4
332.2859,97.2
332.5695,145.3
332.7776,51.4
332.7862,19.2
332.819,236.8
332.9026,115.5
333.008,151.4
333.0523,57833.4
333.0579,9098
333.2665,21.5
333.3054,198.2
333.3159,65.7
333.3379,57.2
333.6775,160.8
333.705,1382.2
333.7565,210.5
333.8625,257
333.9095,52.9
334.0558,3573.6
334.0902,76.5
334.1272,164.3
334.1663,126.5
334.267,659.5
334.3501,167.4
334.3633,150.4
334.3755,386.2
334.3881,435.9
334.4475,42.2
334.6195,72
334.7658,416.7
334.7778,547.3
334.7858,744.3
334.7917,256
334.8102,94.1
334.8249,403.7
334.8379,352.1
335.0381,1103.6
335.1301,447.9
335.4773,371.8
335.5273,251.3
335.6145,166.5
335.8463,52.3
335.8697,44.6
336.0074,505.3
336.6053,104.7
336.6512,72
336.6978,17.6
336.8063,366.1
336.8313,337.4
336.9106,18.4
336.9194,84.5
337.0364,11789.5
337.0497,26171.2
337.0622,811041.7
337.1441,178.8
337.2742,5650.7
337.3051,49.3
337.7735,430.5
337.818,580.5
337.8981,540.1
337.9625,409.7
338.0151,75.8
338.05,605.5
338.0597,3650.2
338.0655,69600.7
338.3074,21.5
338.3431,59.8
338.3584,813.8
338.4265,569.4
338.6988,618.1
338.7854,434.8
338.9216,511.9
339.0009,646.3
339.0383,7969.9
339.0471,1317.9
339.066,7598.1
339.2509,2584.8
339.2897,4645
339.3061,55.4
339.4917,63
339.5668,855.6
339.6175,568.8
339.6984,47.7
340.0446,391
340.0689,157.6
340.0815,338.9
340.1064,273.8
340.1981,286.7
340.2868,42.6
340.2921,893.3
340.5703,535.8
340.6007,284
340.7826,1181.6
340.8573,61.5
340.9026,146.8
340.9711,204.2
341.0186,23
341.2531,73.2
341.3056,4031.7
341.4639,805.7
341.8103,142.8
341.9459,504.2
341.9511,81.2
342.0293,982.9
342.051,393.8
342.0679,40.4
342.2111,304.9
342.2866,169.7
342.3021,64.9
342.3422,17.4
342.4447,326.4
342.5604,96.3
342.7796,422.2
342.8301,799.4
343.0401,604.5
343.1354,77.3
343.1948,8660.6
343.2201,803.4
343.4544,59.2
343.4699,608.5
343.555,52.5
343.5922,696
343.6073,682.4
343.7396,193.4
343.8527,97.7
343.9919,112.2
344.0729,417.2
344.1223,647.9
344.1986,51
344.4204,19.7
344.8081,674.7
345.0159,489.8
345.1836,194.1
345.1988,91.6
345.2102,1641.9
345.4932,89.3
345.5751,728.8
345.7186,453.7
345.9652,86.2
345.9839,1899.3
346.0102,34.5
346.0932,178.1
346.1538,212.7
346.2156,155.7
346.2487,305.5
346.5359,118.1
346.5861,187.5
346.66,440.5
346.7215,18.7
346.9272,970.4
347.1734,59.1
347.458,483.2
347.6521,89.4
347.7317,327.7
347.871,226.1
347.9694,424.3
348.0004,107.2
348.2416,584.8
348.2775,19.7
348.294,588.8
348.431,906.8
348.5621,227
348.5767,74.1
348.6186,158.3
348.7932,92.2
348.8015,124.5
348.9082,63.2
349.0221,59.6
349.1307,92.7
349.2054,821.8
349.2879,94.9
349.4271,155.2
349.588,56.3
349.837,339.3
349.8474,98.3
349.9052,560
349.932,47.8
350.0188,3042
350.1294,59.5
350.1755,121.3
350.1931,200.3
350.2104,551
350.6788,803.9
350.8214,126.4
350.8365,1103
350.8478,408.9
350.8996,572.6
350.9359,60.4
351.025,272.3
351.0526,94.2
351.0967,131.2
351.2595,434.3
351.3068,516.4
351.4545,662.7
351.4915,97.8
351.6541,246.2
351.77,508.8
351.795,286.5
351.8397,18.8
351.8772,55
352.0003,21.3
352.077,907.4
352.1924,64.4
352.5213,16.6
352.6595,66.1
352.6887,115.7
352.6987,100.2
352.7299,165.3
352.7409,59.9
352.8149,61.6
352.9046,92.1
353.0272,185211.7
353.0361,285955.9
353.2077,53
353.3318,59.3
353.4904,92.3
353.8287,294.7
354.0305,16052.9
354.0394,26675.2
354.2887,73.9
354.3404,155.1
354.5888,380.3
354.6484,22.7
354.6808,88.8
354.8272,53.6
354.8965,426
354.9181,19.9
355.012,3215
355.0208,82.6
355.0344,17546.9
355.0701,609.2
355.1908,211.6
355.2149,780.8
355.2893,875
355.368,148.4
355.4676,217.7
355.5289,482.1
355.5743,112.7
355.5801,98.8
355.5993,710.1
355.7435,800.3
355.879,53.1
356.0154,122.2
356.0699,24.9
356.1773,97.6
356.3817,480
356.4179,287.2
356.4318,217.5
356.4839,43.1
356.532,644.4
357.0087,1135.9
357.0201,353.4
357.161,58.4
357.236,634.1
357.2462,769.9
357.3087,331
357.3771,46.1
357.4002,18.2
357.5116,62.6
357.5659,556
357.5993,645
357.6097,297.4
357.6166,117.3
357.6241,1000.5
357.6299,223.6
357.6407,58.7
357.6967,56
357.7389,93.2
357.8213,19
357.8345,65.3
358.0092,29.7
358.0765,927.1
358.3647,671.6
358.4186,85.4
358.48,132.6
358.4929,948.7
358.5879,53.8
358.8848,73.4
359.0078,640.7
359.0317,19554.8
359.0441,577330.4
359.0671,357.7
359.0956,98
359.1264,52.3
359.3031,338.3
359.4176,787.8
359.4495,613.5
359.4674,159.4
359.4764,80.5
359.4936,79.9
359.5212,139.1
359.546,337.6
359.5498,191.1
359.5774,470.6
359.5858,510.6
359.5941,72.9
359.5991,21.2
359.6167,397
359.6332,61.2
359.6408,50.9
359.6768,106
359.9001,49.3
359.9065,58.7
360.0475,51214.5
360.1747,369.1
360.199,623.8
360.3236,452.4
360.4991,150.1
360.5482,91.5
360.5791,588.4
360.6295,60.4
360.8185,124.8
361.0203,11342.1
361.0287,173.1
361.0479,3363.7
361.0569,210.8
361.1464,65.1
361.224,293.5
361.2601,76.3
361.2763,458.8
361.3266,42
361.6189,700
361.7363,441.6
361.9124,68.3
361.9577,57.5
362.0235,173.7
362.0493,898
362.1369,147.9
362.4085,672.4
362.431,352
362.6293,60.2
362.6895,303.1
362.9409,48.3
362.9855,89.6
363.1499,558.2
363.2614,285.1
363.3583,809.5
363.4208,747.5
363.7393,158
363.899,749.1
363.9086,99.8
364.0251,19.3
364.3083,97.6
364.3408,121.1
364.3787,189.3
364.4385,74.1
364.4545,22.6
364.5457,165
364.6182,219
364.6922,178.6
364.6982,371.4
364.7889,1153.2
364.8838,17.9
365.0289,124.6
365.0446,96.6
365.0857,451.3
365.3267,53.3
365.4425,263.3
365.6956,207.7
365.8488,390.4
366.2767,869.6
366.3027,17.1
366.459,72.6
367.0705,79.1
367.0841,234.3
367.1217,2353.3
367.1966,125.5
367.2062,19.5
367.3371,79.2
367.4569,669.8
367.6627,68.3
367.7233,72.4
367.7607,58.3
367.9427,19
367.992,73.8
368.044,370
368.0601,102.9
368.1815,18.7
368.4074,336.7
368.4997,93.1
368.5085,686.1
368.5654,194.2
368.7416,51.7
368.7499,207.2
368.7986,55.2
368.8715,378.7
368.9482,379.3
368.9917,1682.7
369.0012,22613.4
369.01,11982
369.112,617.2
369.1267,17.6
369.3329,187.2
369.3516,270.9
369.5154,106.4
369.5925,100.4
369.7728,88
369.8292,141.7
369.9028,51.3
370.0042,631
370.0765,927.5
370.0945,657.2
370.1065,549.4
370.1373,56.9
370.304,67
370.7739,97.6
370.839,18.6
370.9993,349.3
371.008,77.3
371.103,82.4
371.2646,799.2
371.3096,18.4
371.5867,205.3
371.801,345
371.9221,445
372.153,381
372.1655,132.5
372.1833,248.9
372.2681,632.9
372.4506,65
372.6429,65.6
372.6809,81.8
372.689,76.9
372.7688,73.3
372.9212,100.2
373.1461,487.1
373.3867,240.7
373.6088,20.3
373.7004,21.7
373.7071,853.5
373.7166,262.3
373.7801,209.7
373.7945,54.5
373.8029,75.8
373.8488,111.8
373.9253,107.6
373.9577,455.8
374.076,196.4
374.1599,54.5
374.4445,106.2
374.4653,722.2
374.523,142.5
374.6668,68.4
374.7343,350.2
374.7941,521.4
374.9855,53.9
374.997,143.6
375.0092,164323.9
375.0181,181936.6
375.0448,302.8
375.0612,206.4
375.1435,154.7
375.1581,583.7
375.2088,192.3
375.3104,143.5
375.4673,82.5
375.5873,207.2
375.6436,586.6
375.7355,182.2
375.8541,233.3
375.8769,20.8
375.9711,44.6
375.9819,60.3
376.0123,11473.5
376.0214,16172.3
376.3079,79.1
376.4261,1097.9
376.4312,1172.5
376.6228,42.3
376.638,754
376.827,280.9
376.8951,133.7
376.9941,4925.7
377.0164,8651.6
377.1572,198.5
377.1917,90.7
377.2182,109.4
377.3357,332.8
377.4881,605.1
377.5287,93.1
377.5371,19.1
377.5772,56.7
377.6882,932.4
377.7366,287.5
377.8486,88.5
377.9333,1246.5
378.0193,390.5
378.1045,22.5
378.1762,232.4
378.1898,73.9
378.3348,142.7
378.4387,18.7
378.4682,46
378.5605,297.3
378.5933,48.3
378.6266,162.3
378.7929,102.3
378.8305,578.3
378.8905,64.3
378.9908,60.7
379.2132,638.7
379.2322,110.7
379.3346,635.3
379.7197,69.3
379.803,223.3
379.8508,756.3
380.3084,90
380.503,83.7
380.8203,653.8
380.892,348.4
380.9166,54.3
380.9646,393.2
380.9898,71.5
381.0136,22780.6
381.0261,326440.7
381.3381,122.4
381.6594,88
382.0293,28053.8
382.0965,965.5
382.14,121.1
382.192,171.8
382.2627,131.3
382.3143,139.4
382.3918,44.3
382.4096,294.9
382.6457,865
382.7297,235.7
382.7438,558.4
382.7671,1609.8
382.7812,282.9
383.0298,348.3
383.0696,71.3
383.1164,178282.8
383.2385,74.9
383.3009,124
383.3858,112
383.4036,66
383.4891,64.9
383.5021,458.3
383.8011,36.9
383.8529,20.9
383.9901,218
384.0662,455
384.0743,1441.3
384.1197,19081.1
384.1757,69.4
384.3619,718.2
384.6814,226.9
384.7523,95.4
384.8203,354.3
385.2052,274
385.2747,58.2
385.4743,569.3
385.7167,112.7
385.8292,19.8
386.1344,307.2
386.2448,177
386.2634,510.3
386.2807,121.6
386.425,39
386.5132,88.7
386.5417,55.2
386.7043,21.8
386.9169,283.4
387.0025,354.6
387.0612,522.8
387.1184,246.9
387.2556,624
387.2946,41.5
387.4315,85.9
387.7082,17.6
387.744,133.3
388.1003,93.7
388.1202,92.7
388.2521,48
388.4628,20.4
388.5303,213.1
388.7126,544.7
388.8058,299.3
388.9339,93.7
389.1361,252.1
389.1638,112.4
389.2336,221.2
389.2538,68.8
389.4272,149.7
389.5253,361.5
389.6771,54.7
389.9738,2843.5
390.0374,21.5
390.2343,647.6
390.3024,80
390.3203,90
390.3381,481
390.3552,108.4
390.3938,248.5
390.4171,75
390.7092,371.1
390.7866,645.1
390.7995,1285.7
390.8441,186.5
390.8586,616.3
390.8628,522.5
390.8708,18.4
390.8882,566.1
390.944,98.7
390.9741,7115.2
390.983,32633.4
390.992,20018.2
391.024,235.3
391.1882,561.6
391.1937,542.4
391.4517,266.9
391.6545,18.2
391.9387,550.9
391.9955,267.6
392.2521,16.6
392.3221,114.8
392.3649,48.2
392.4578,85.8
392.4955,18.7
392.7961,1186.7
392.8546,56.1
392.968,939.1
392.9833,38.7
392.9898,662.6
393.0114,18.4
393.16,78.2
393.2268,55.2
393.2981,28.3
393.3488,17.9
393.6218,56.6
393.7661,45.9
393.887,57.4
393.9529,40.3
393.984,53.7
394.0069,59.7
394.0985,834.2
394.2846,79.2
394.3029,294.3
394.4933,935.6
394.5101,134.4
394.5743,211
394.7149,149.7
394.7926,594.1
395.1563,497
395.1663,1024.4
395.2367,160.5
395.5072,647.8
395.9243,70.4
395.9358,89.5
396.1068,472.6
396.143,103.2
396.3203,450
396.4457,1048.6
396.6856,141.2
396.744,347.3
396.9911,165299.8
397,124976.1
397.0648,376.1
397.1352,198.5
397.1737,16.8
397.2634,21.3
397.3846,118.7
397.6732,49.9
397.9944,15324.5
398.0032,7182.2
398.1034,66.5
398.2418,2643
398.2642,75.2
398.3725,399.6
398.6607,39.8
398.7411,2275.1
398.7619,964.2
398.8426,983.2
398.9513,71.6
398.9812,579.5
398.9985,4195.8
399.0107,80.4
399.0415,500
399.2446,315.6
399.5982,73.4
399.8905,328.5
399.9171,87.5
400.1435,248.9
400.514,498
400.6734,210
400.7377,768.6
400.8223,171.8
400.841,162.2
400.9731,20
401.1791,442.7
401.1864,225.9
401.2262,335.8
401.2735,111.7
401.2993,133.1
401.4824,100.4
402.1239,163.1
402.1419,319.5
402.2517,38.6
402.4923,87
402.5775,111.1
402.5896,207.5
402.736,386.8
402.8242,553.4
402.9256,97.4
402.9351,632.3
403.008,246970.9
403.0736,108.2
403.1184,90.4
403.2245,706.3
403.4023,429.6
403.6003,1224.7
403.7213,264.8
403.9852,51.5
404.0114,20568.9
404.0243,93.3
404.0606,771.2
404.1272,474.9
404.1605,455.6
404.7077,56.2
404.7718,37.4
404.8971,100.7
405.0132,167.7
405.1634,87.6
405.1923,137.3
405.2572,128.5
405.2678,733.7
405.3184,224.2
405.323,499.8
405.3252,488.3
405.3805,67.6
405.5052,158.7
405.5175,598.3
405.7428,794.9
405.9007,100.8
405.9478,1444.1
405.9619,459.9
406.0753,501.9
406.154,51.3
406.2193,216.3
406.2892,301
406.2932,375.1
406.3061,148
406.3295,1612.2
406.3599,333.6
406.3687,90.6
406.5417,86.1
406.6842,452
406.7726,499.2
406.9643,259.4
407.1379,182.2
407.3328,192.1
407.5929,68.4
407.6352,797.7
407.6915,311.5
407.7265,259.2
407.9194,172.4
407.9411,861.7
408.334,62.7
408.5456,57.2
408.5772,170.5
408.6031,358.1
408.6471,86.6
408.7591,126.4
408.7698,2888.6
408.9851,1603
409.0566,31.7
409.092,57
409.3391,17.9
409.4632,71.7
409.5477,19.7
409.6119,863.8
409.7316,104.6
409.8662,210.1
410.009,435.4
410.2949,79.2
410.3309,61.1
410.4917,191.9
410.5362,104
410.5866,117.7
410.7672,606.8
410.7868,151.3
411.0516,761.2
411.199,88.7
411.2405,577.9
411.2993,253.3
411.613,340.3
411.8113,146.3
412.0674,401.1
412.1825,482.8
412.1939,93.5
412.2337,734.8
412.2508,748.4
412.3213,2916.7
412.4138,84.7
412.7175,453.2
412.7313,712
412.7789,17.8
412.79,88.5
412.852,210.7
412.9651,39786.7
412.974,19824.1
413.0673,51.3
413.2665,6143.5
413.3245,432.8
413.4718,54.3
413.7783,420.4
413.8959,208.1
413.9147,126.2
413.9691,517.1
414.2238,111.9
414.27,425.5
414.2888,492.3
414.6381,781.9
414.6859,367.3
414.7151,589.6
414.7209,541.9
414.9718,271
414.9975,4890
415.1152,117.5
415.1262,51.5
415.2827,739.4
415.3979,137.9
415.42,49.8
415.4267,121.4
415.53,23.6
415.6089,65.7
415.9804,61.8
416.1352,12097.9
416.2142,5878.5
416.5219,69.5
416.5623,121.4
416.8021,997
416.87,18.3
416.9754,158.9
417.0027,2220.7
417.0285,319.6
417.0444,206
417.1184,43.4
417.2175,127.8
417.4162,398.4
417.4488,124.4
417.4742,51.6
417.5459,67
417.8304,56.2
417.8913,669.8
417.974,758.8
418.0075,143.9
418.0414,535.4
418.3217,675.9
418.3588,628.5
418.4477,55.4
418.5456,138.3
418.6724,254.9
418.7983,534.6
418.8267,329.1
418.9675,152
418.982,110268.9
419.007,55.8
419.0248,434.5
419.0403,67.9
419.0946,636.1
419.1239,309.1
419.2287,74.1
419.2559,67.6
419.5354,76.7
419.8418,124.9
419.857,893.9
419.9853,6943.6
420.1362,670.3
420.2308,162.9
420.2698,17.6
420.5664,73.6
420.7909,100.2
420.8318,288.4
420.8422,361
420.9593,71.5
420.9803,2327.1
421.1871,268.3
421.3793,78.6
421.7963,51.2
421.9213,229.7
421.9959,70.3
422.1471,19.4
422.2018,135.3
422.3012,116.9
422.468,112.3
422.6829,219
422.7225,164.1
423.0081,131.8
423.0804,52.2
423.1429,120.3
423.1524,779.6
423.4731,84.9
423.5461,267.2
423.5718,56.4
423.5933,18.5
423.7485,18.7
423.9663,256.7
424.3179,70.6
424.567,56.2
424.5849,501.6
424.6241,376.6
424.6492,848.2
424.7443,744.4
425.1745,61.6
425.4055,145.9
425.499,41.2
425.5131,49.5
425.5374,437.8
425.5708,48.8
425.943,72.1
426.0337,63
426.3262,85.5
426.4413,55.6
426.6072,603.2
426.6409,142.7
426.685,178.8
426.9251,297
427.0332,76.5
427.135,312.5
427.3545,73.4
427.7806,237.7
427.8342,411.1
427.9597,54.8
427.9898,225.3
428.0416,52.8
428.0957,86.5
428.0985,85.4
428.2215,1031.5
428.3364,336.1
428.5293,150.1
428.7751,809.6
428.9391,1506.2
428.952,267.7
428.9754,523.9
428.9896,132.3
429.0036,1659.6
429.0221,1868.2
429.089,109.5
429.2009,156.4
429.3538,43.7
429.4902,57.3
429.6009,107.2
430.0737,65.5
430.0877,25.8
430.2744,216.3
430.5456,123.8
430.7738,480.9
430.8902,52.1
430.9913,179.9
431.1201,49.2
431.217,6179.4
431.306,76.7
431.3939,95.8
431.7216,45.8
432.3901,70.1
432.4908,83.6
432.5249,310.1
432.6522,21
432.6878,111.4
432.9675,241.3
433.1905,242
433.267,460.7
433.3958,65.2
433.4176,20.3
433.431,971.7
433.6624,87.7
433.7126,719.1
434.2222,119.7
434.2315,154.1
434.4597,221
434.5336,50.4
434.7265,315.8
434.9559,21862.6
434.9789,139.4
435.3801,175.5
435.7685,473.2
435.9504,90.7
435.9593,1001.3
436.0791,57.3
436.2128,62.5
436.4333,20
436.5265,54.9
436.8227,390.9
436.9549,1227.4
437.5405,319.6
437.5636,137.3
437.6754,307.5
437.8758,179.3
438.1273,162.2
438.1761,335
438.2982,21.1
438.323,99.8
438.3439,147.4
438.5643,117.1
438.6131,85.3
438.7232,43.5
438.8657,383.3
438.9721,1598
438.9846,26453.1
439.065,136.6
439.2515,69.8
439.6065,265
439.9646,95.2
439.9938,233.2
440.0961,99.8
440.1549,18
440.3076,741.1
440.3527,448.9
440.3602,112.2
440.4063,54.4
440.6666,135.8
440.6954,265.6
440.7221,396.3
440.7248,469.9
440.9397,123
440.9821,4900.3
441.2979,355.8
441.3343,888.1
441.3702,79.7
441.6503,45.5
441.9694,591.6
442.1071,876.3
442.1283,772.1
442.2813,66.5
442.4512,854.4
442.4975,61.9
442.7225,464
443.0154,90.2
443.2543,1469.4
443.3623,53.5
443.5135,155.9
443.6598,888
443.7068,481.4
443.7765,524.3
443.9056,939.7
443.9713,537.8
444.1527,71
444.2458,364.1
444.3654,89.1
444.4246,211.1
444.4621,910.5
444.5641,396.6
444.5859,61.7
445.0389,106.5
445.1407,62.1
445.2329,3380.9
445.2682,797.9
445.5714,378.2
445.6035,47.7
445.7722,349.7
446.2357,948.9
446.3209,93.9
446.3934,44.6
446.5273,127.2
446.6046,244.8
446.9196,349.1
446.9872,115.8
447.0296,880.6
447.1947,134.8
447.2015,102
447.4401,469.8
447.4984,160.2
447.814,67.7
448.2065,89.2
448.4918,214.8
448.7566,397.1
448.904,768.9
448.9331,3306.4
449.1544,1063.3
449.2259,51.2
449.2414,113.8
449.2514,86.9
449.3059,56.7
449.3314,360.7
449.5101,272.1
449.55,20.3
449.6141,80
449.6977,146.2
449.7718,141.5
449.9092,19.5
450.1167,62.7
450.1583,207.1
450.1766,182.3
450.3769,167.8
450.4362,135.3
450.4544,854.3
450.5993,143.9
450.7125,57.6
450.7547,470.9
450.764,19.3
450.9298,881.3
450.944,85.7
450.9657,200.6
451.0906,141.3
451.1087,53.9
451.1497,34.6
451.2834,98.2
451.5722,54.4
451.5827,83.9
452.0174,41.9
452.0276,51.6
452.1709,339.6
452.6304,50.5
452.692,163.7
452.7602,476
452.7956,567.1
453.1844,1019.5
453.3198,84.9
453.5195,75.6
453.5916,353
453.962,94.1
453.989,907.8
454.0429,123.4
454.0687,19.3
454.0991,515.4
454.1809,228.2
454.2114,423.9
454.2838,114.7
454.5093,334.8
454.7011,467
454.7915,84.9
454.9497,45471.5
454.9576,9897.4
455.9877,946.9
456.3673,41.2
456.4219,50.5
456.4361,142.2
456.7,703.7
456.7269,20.7
456.9469,10964.4
457.2071,776.8
457.233,14791.6
457.2868,932
457.4653,78.5
457.4784,99.9
457.6187,78.1
457.953,61.7
458.0829,65.1
458.224,189.5
458.2365,728.1
458.319,827.6
458.6461,422.1
458.6966,925.8
458.9074,731.9
458.9613,2187.1
459.1125,98.2
459.2485,410544.4
459.4095,573.1
459.8595,608.7
460.1175,54.3
460.1767,154
460.2519,82488.9
460.3382,455.4
460.4549,41.9
460.6796,55.4
460.7513,1008.4
460.7871,70.6
460.9666,91528
461.1639,213.4
461.255,6642.6
461.3389,172.7
461.4917,351
461.5763,50.5
461.97,6309.8
461.9797,331.7
462.0749,393.8
462.2824,215.3
462.522,117.7
462.6822,304.4
462.7421,1008.8
462.9636,24224.1
463.0161,19.3
463.1252,1018.4
463.1339,66.1
463.189,309.9
463.4129,72.9
463.5584,95.2
463.8585,156.6
463.9421,364.7
464.099,199
464.2179,340.7
464.2522,54
464.3025,1037.8
464.4948,164.2
464.7421,111
464.9786,13552.6
465.269,20.6
465.4391,69.7
465.4782,176.8
465.5925,130
465.9598,240.1
466.1449,17.6
466.5389,570.9
466.6791,362.3
466.729,1252.6
466.9306,50.3
467.131,332.8
467.6288,17.4
467.6402,637.1
467.7051,71.3
467.9308,179.9
468.0189,218
468.1481,249.7
468.3083,1348
468.7568,78.1
469.3305,98.4
469.4099,200.3
469.5865,55.9
470.0904,490.1
470.1078,91
470.2337,890.3
470.2535,48
470.2749,18.9
470.357,308.5
470.605,96.7
470.7238,97.3
470.7782,283.5
470.8065,52
470.9236,20143.1
470.9955,4073.8
471.2856,679.8
471.37,257.4
471.5351,331.5
471.5544,171
471.6364,139
471.82,898.9
471.9266,572.8
472.0016,688.3
472.077,69.6
472.5361,247.6
472.6195,163.1
472.6742,700.8
472.7896,51.5
472.8872,65.2
472.9087,52.7
472.9206,5015.4
472.9411,600.7
472.9535,563.1
472.9799,317.1
472.9982,814.2
473.0557,60.9
473.1501,418.9
473.1885,71.7
473.24,58.2
473.2644,4639.8
473.3947,123
473.4785,421.5
473.5273,51.7
473.8563,772.2
474.0052,122.7
474.3661,45.9
474.846,49.6
475.0261,101.4
475.0601,182.2
475.177,57
475.2225,27483.3
475.4229,113.3
475.6039,834.5
475.9963,96
476.2262,4155.5
476.4038,279.6
476.4457,174.6
476.4828,412.3
476.5012,22.3
476.9405,61498.3
477.013,84.4
477.2576,258.2
477.2647,252.9
477.4408,853.7
477.4619,88.4
477.5467,199.7
477.9188,94.4
477.9437,2895.3
478.2788,238.5
478.3293,34083.5
478.4068,363.7
478.478,85
478.7197,66
478.7551,63.8
478.9379,20542
479.0026,1062.3
479.1088,782.2
479.1322,292.6
479.1927,100.7
479.2862,96.9
479.3325,5927.5
479.4201,195.2
479.6221,156.6
479.7375,17.9
479.9852,561.8
480.3361,903.7
480.345,1581.4
480.6079,89.9
480.6472,517.9
480.6974,312.1
480.7431,96.5
480.7662,99.8
480.8583,191.4
480.9273,70.6
480.9524,3227.1
481.0649,378.8
481.0916,105.8
481.2328,1985
481.2606,165.6
481.2965,97.2
481.4506,177.4
481.4883,130.6
481.568,399.2
481.684,66.7
481.7972,540.8
482.0272,20.2
482.1622,156.7
482.3242,2848.4
482.3613,71.6
482.5741,89.7
482.6076,86.4
482.8253,88.2
482.9177,178.8
482.9564,315.4
483.2485,125550.8
483.2645,48.9
483.3274,960.4
484.0422,897.7
484.1465,377.4
484.2338,99.1
484.2517,23227.7
484.3309,87.2
484.5846,504.9
484.7604,531.8
484.9538,595
485.0367,418.5
485.2641,101279.4
485.3371,41.7
485.4523,183.3
485.8714,444.5
486.2677,20176
486.3769,87
486.4058,322
486.4255,42.6
486.8971,1313.2
486.9687,1170.7
487.0239,90.7
487.1531,24
487.2302,56.9
487.2798,92178
487.3476,129.1
487.4933,892.5
487.7733,860.1
488.0534,690.2
488.0727,74.9
488.2832,19345.7
488.3477,81.3
488.5701,178.6
488.7005,649.1
489.0105,78.7
489.0853,31.9
489.206,162.4
489.2472,127.8
489.266,143.2
489.31,300.7
489.3564,118.2
489.3829,75.7
489.4234,139.1
489.4572,291.7
489.4744,21.4
489.4961,126.7
489.5148,55.4
489.6512,181.2
490.0164,50.4
490.2905,11104.1
490.3509,220.4
490.5803,451.8
490.8531,218.2
491.0835,19.5
491.2671,73.5
491.2946,857.7
491.3703,2425.8
491.458,110.5
491.7178,112.4
491.7907,107
491.8878,120.5
491.9851,886.3
492.0732,54.5
492.0975,268.5
492.2031,454.1
492.3118,668.8
492.3229,96
492.3538,80.9
492.5906,46.7
492.6377,48.8
492.8943,658.5
492.9145,11597.5
492.9421,459.7
493.8595,58.5
493.9234,380
494.0309,169.3
494.0503,699.5
494.2476,236.1
494.324,11227.4
494.4557,53.5
494.7592,64
494.795,621.6
494.9113,3474
494.9691,610
495.1376,181.9
495.2237,151.3
495.3282,1095.6
495.4036,173.2
495.8045,505.3
495.8636,64
496.0774,114.1
496.1302,603
496.2163,170
496.2342,159.8
496.34,501484.1
496.6878,396.5
496.7425,773
496.9305,964
496.9433,739.8
497.0802,691.2
497.3433,125532
497.6353,306
497.7383,90.7
497.7616,465.7
497.879,539
497.9288,720.5
498.0191,46
498.1812,144.2
498.2282,338.5
498.3464,9809.3
498.3742,368.7
498.74,92.9
498.9383,68.3
498.9581,50.4
499.1203,76.9
499.1965,123.9
499.2225,5820.4
499.9306,292.3
500.0551,142
500.2412,829.1
500.4168,24.3
500.4566,65.7
500.7221,467.8
500.9851,1107.9
501.1124,479.3
501.1537,230.9
501.2383,7699.4
501.3265,371.7
501.6903,63.2
501.894,275.5
501.9865,249.4
502.3288,7074.6
502.5447,283.8
502.5915,158.2
502.6342,575.5
502.8296,526.6
502.9358,746.9
503.0322,56.1
503.1071,117.8
503.1555,841.4
503.1769,100.9
503.2536,5709
503.3326,830.8
503.9309,58.6
503.9698,192.8
504.0995,51.7
504.1203,57.7
504.1631,1264.3
504.1907,397.5
504.3062,8632.2
504.3443,8289.5
504.4711,96.1
504.6279,515.4
504.7539,40.1
505.067,132.2
505.2328,1828.6
505.3104,1354.2
505.3285,1162.7
505.5677,138.4
505.874,117.6
505.8868,103.9
506.2644,764.6
506.3602,2758.7
506.3772,591.5
506.4278,87.3
506.4709,64.7
506.5085,58.8
506.6444,88.6
506.6953,533.3
506.8907,2494.2
506.9718,82.2
506.9966,18.3
507.0522,20.8
507.2211,42.8
507.2483,28480.3
507.3523,963.3
507.3627,100.8
507.7187,789.3
507.7292,913.5
507.8172,134.1
507.9266,248.6
508.1766,52.8
508.2517,5457.9
508.3721,83.6
508.7115,441.2
509.0058,3070.4
509.0792,747.1
509.2641,15080.6
509.4506,65.2
509.5415,489.2
509.5786,230.5
509.6673,133.2
509.7329,20.3
509.7948,78.1
509.8517,260.2
509.9758,50.4
510.04,20
510.2674,2112.2
510.3328,94
510.3557,3942
510.4156,865.2
510.4759,95.3
510.7383,166.9
510.7733,306
510.8732,45.8
510.9826,858.4
511.0163,334.3
511.1241,56.6
511.1498,75.5
511.2508,48.5
511.5565,220.5
511.9587,636.2
512.1009,231.2
512.2676,205.9
512.2897,71.6
512.3347,325.3
512.5453,381.9
512.7877,84.5
512.8654,614.9
512.9083,16546.3
513.0297,225.2
513.2429,90.9
513.4562,58.4
513.912,667.4
514.1257,724.5
514.132,811.8
514.3084,494.9
514.531,308.4
514.5799,18.9
514.629,49.4
514.658,1217.1
514.7058,152.6
514.8741,439.8
514.9055,9935.8
515.0059,133.1
515.0196,417
515.0365,911.1
515.1756,344.6
515.2467,106.8
516.0024,586.4
516.0411,169.7
516.0707,47.3
516.1284,65.3
516.2433,57.2
516.2778,1438.6
516.3062,32311.2
516.4014,103.8
516.4347,607.2
516.4511,134.4
516.6387,164.6
516.6563,428.1
516.6797,105.6
516.9008,398.2
516.9198,375.5
516.9435,351.7
516.9596,337.3
517.2292,152.5
517.2827,123.3
517.3094,5438.7
517.7579,261.5
517.9606,50.7
518.0506,53.4
518.1888,54.4
518.322,981491.1
518.3881,545.3
518.6666,24.7
518.7248,103.8
518.9252,36792.5
519.0079,278.9
519.1442,78.2
519.1734,79.3
519.3253,229696.5
519.4016,685.4
519.4507,232.1
519.5638,224.3
519.6542,119.9
519.6826,481.3
519.7557,307.1
519.8351,1228.4
519.9296,830.9
520.0235,489.7
520.063,95.3
520.1162,1173
520.281,1504.9
520.3291,24133.2
520.3399,128460
520.3641,88.1
520.5061,50.3
520.7828,416.9
520.8991,70.9
520.9223,22693.6
520.9523,338.7
520.9851,1062.8
521.1046,57.8
521.332,2658
521.3433,33846.8
521.3781,358
521.7291,227.2
521.8368,87.7
521.9257,625.2
522.023,89
522.1065,139.5
522.1895,74.6
522.3063,22
522.3555,137118.4
522.8453,64
522.8854,90.8
522.9194,614.7
522.9371,5855
523.0774,89
523.2225,1156.1
523.2356,621.2
523.2608,20.5
523.3032,55.7
523.359,37250.8
523.5544,41.9
523.6621,227.4
523.6706,636.1
523.915,21.8
523.972,89.1
524.0118,83.1
524.0537,663.6
524.0616,1133.4
524.3713,147113.5
524.4134,567.3
524.6876,1136.7
524.9351,375.5
524.9781,405.9
525.0822,161.7
525.1593,110.2
525.2124,71.3
525.3575,91
525.3748,41218.3
525.3894,538.8
525.9306,101.3
526.0013,108.5
526.0586,61.7
526.3294,3237.3
526.3773,1175.1
526.4111,78.8
526.8248,184.2
526.87,74.5
527.009,772.3
527.0437,98.1
527.0767,496
527.0906,91.6
527.9055,93.7
527.9695,109.7
528.0276,786.2
528.3442,47.8
528.5326,54.2
528.8823,10105.4
528.9545,3468.1
529.3848,173.1
529.8648,51.9
529.8823,516.4
530.0977,243.3
530.1185,17.9
530.3223,773.1
530.3586,1023
530.6333,49.6
530.8795,5634.3
530.9492,965.2
531.0275,97.9
531.127,47.3
531.2203,8491.3
531.2476,4334.5
531.3028,764.7
531.3535,627.1
531.3797,379.5
531.6292,89.2
531.9044,112.6
531.9699,49.6
532.2231,2415.3
532.2808,6066.3
532.3377,10889.8
532.4238,51.9
532.4581,177.5
532.476,66.8
532.5443,265.8
532.5646,98.7
532.6828,163.7
532.9068,94.4
532.9656,3237.7
533.1275,1063.4
533.1619,290.4
533.2644,1166.9
533.3417,1297.2
533.5563,183.2
533.8556,229.2
533.89,794.2
533.941,206.6
534.296,258486.8
534.5552,239.7
534.8395,93.5
534.8777,925.2
534.899,25231.8
535.0311,54.5
535.11,68
535.1225,59
535.1762,276.6
535.2993,63613.8
535.314,411.3
535.3864,172.4
535.9033,1349.7
536.2945,11077.1
536.5354,69.1
536.6018,54.3
536.7635,388.6
536.7824,475.2
536.8079,50
536.8522,77.1
536.8964,15070.8
536.955,48.2
536.9925,253.7
537.2972,1955.3
537.3271,107.3
537.3425,520
537.8981,490.3
538.2776,141
538.3216,72.7
538.509,307.9
538.8535,64.1
538.8932,1713.6
538.912,2864
539.0627,311.5
539.4754,55.3
539.5045,73.6
539.5911,113.4
539.6245,408.1
539.8552,108.8
540.0365,21.5
540.137,228.5
540.3065,1976.8
540.3433,92.5
540.4334,70.3
540.848,728.4
540.8866,50.5
540.9086,681.3
541.2291,64.8
541.5537,56.9
541.5686,321.7
541.7305,124
541.7595,318.1
541.8886,24.4
542.322,250720.1
542.3813,83.9
542.8365,376.6
543.2576,529.6
543.3253,65134
543.4003,738.6
543.4325,193.6
543.6451,20.4
543.6805,74.7
543.9626,249.4
544.0728,92.1
544.0941,278.8
544.1959,384.5
544.2957,63.8
544.3377,259442.1
544.4087,70.8
544.6422,48.2
544.8522,74.6
544.9282,589
544.949,706.3
545.0677,476.8
545.2083,715
545.341,64200
545.4008,924.1
545.5002,63.8
545.7139,103.5
545.831,65.6
546.0466,141.1
546.1782,124.6
546.3533,271002
546.4607,446
546.9252,900
547.0602,97.4
547.1587,120.6
547.1901,929
547.3568,63612.4
547.4432,837.5
547.8401,492.5
548.0505,316.8
548.065,59.9
548.1898,60
548.3207,240
548.3598,8719.6
548.5634,98.3
548.6778,892.4
548.7347,107
548.7692,20
549.0603,617
549.1974,314.1
549.3245,24.4
549.4684,111.2
549.6223,359.7
549.7035,827.2
549.8915,71.6
550.0965,113.2
550.2185,233.9
550.2852,96
550.3196,202.3
550.5379,74
550.5602,85
550.8731,5447.6
550.9893,40.3
551.669,664.8
551.7014,77.9
551.8361,775.2
551.9398,136.8
552.0902,50.4
552.2745,226.9
552.3334,192.7
552.3567,85.4
552.4467,20.4
552.4657,465.9
552.6984,49.1
552.8705,2248.8
553.0214,69.7
553.0696,72.2
553.4114,57.7
553.7604,1256
553.7849,75.2
554.3268,56.6
554.4152,281
554.4621,773.3
554.5059,49.3
554.6592,320.8
554.9177,215.9
555.1425,512.6
555.3463,838
555.6345,68.6
555.9414,18.9
556.2804,696.3
556.586,140.6
556.945,52
557.0283,274.6
557.1813,137
557.209,53.2
557.6163,366.7
557.6706,96.9
557.7246,121.1
557.818,72
557.8786,474.6
557.9671,263
557.979,199
558.296,77172.2
558.4754,166.3
558.6418,375.3
558.9219,53.1
558.9843,292.3
559.014,58.2
559.0778,63.4
559.2427,54.6
559.2995,17991.5
559.9735,84.8
560.0076,59.2
560.0457,237.4
560.1397,325.4
560.2949,2946
560.3115,67960.1
560.9045,338.5
561.0434,145.3
561.1689,92.2
561.2156,451.7
561.2258,19.7
561.297,22.4
561.3148,14645.9
561.352,409.9
561.3946,133.7
561.4128,4098.6
561.5575,304
561.5822,369.2
561.8647,45.4
562.1789,56.7
562.1996,254.6
562.3097,1449.7
562.3273,66613.7
562.6116,64.4
562.9347,49.9
562.99,316
563.1895,162.5
563.3305,13486.9
563.4288,5639.9
563.611,731.3
563.7911,171.9
564.0985,39.8
564.3061,2890.4
564.3255,1224.2
565.1302,65.6
565.1963,54.4
565.4191,52.9
565.5747,657.8
565.9039,78.5
565.9851,106.8
566.0317,95.8
566.0849,101.4
566.1817,229.3
566.322,61506.5
566.536,23.1
566.8589,457.1
566.9103,55.3
566.9642,1590.8
567.1047,276.8
567.1484,374.9
567.3254,14438.8
567.6858,100.6
567.8817,1021.1
568.0267,869
568.1154,72.8
568.3376,38210.7
568.6398,716.8
568.8394,17.6
569.0219,463.9
569.3414,10374.7
569.465,69.9
570.059,45.7
570.3358,572.7
570.3542,2183.3
570.428,181.1
570.5156,731.3
570.5293,228.1
570.6988,19.4
570.8217,154.4
570.835,203.1
570.8672,3141.3
570.881,264.7
570.894,70.9
571.0356,2443
571.3291,52.5
571.539,156.7
571.6222,52.8
571.6335,212.4
571.7187,225.4
571.8149,81.2
571.8825,169.3
572.3702,536.9
572.5271,51.2
572.8643,5635.2
573.0047,94.5
573.3083,626.2
573.4176,533.7
573.8115,207.3
574.0034,140.1
574.2526,207
574.2825,77.2
574.3795,54.6
574.5568,102.1
574.8614,570.2
574.8842,43
575.2876,45.8
575.3324,57
575.5029,974.3
575.7768,243.7
576.0098,143.5
576.2805,12331.2
576.3648,82.6
576.5586,66.7
576.8221,67.4
576.8838,11340.5
577.0015,299
577.0358,179
577.1113,673.5
577.2845,2486.8
577.3281,41.5
577.3631,1051.2
577.488,101.6
577.5744,65.8
577.9054,128.6
578.1109,57.1
578.2778,2704.7
578.3872,248.2
578.5349,159.4
578.6481,234.2
578.8638,508.3
578.881,10527.5
579.0189,978.9
579.1165,57.1
579.6359,862
579.7903,115
579.872,66.9
579.9724,48.4
580.0117,296.6
580.0352,273.3
580.3345,142
580.8464,141
580.8782,1665.6
580.8957,3392.6
580.9235,528
581.0813,171.3
581.1092,213.6
581.2978,1040.1
581.3988,101.8
581.455,230.7
581.6822,627.3
581.7564,315.1
582.0257,192.2
582.0774,65
582.0925,62.9
582.2312,90.4
582.296,13656.2
582.3272,680
582.3721,153.8
582.4139,155
582.441,754.2
582.4841,743.9
582.519,1135.2
582.5384,636.4
582.5473,654.9
582.5585,152.1
582.5646,202.1
582.6468,563.2
582.8924,1266.3
582.9585,141.8
583.0971,827.5
583.2994,1781
583.4688,142.1
583.5014,497
583.849,176
583.8731,1005.2
583.8944,476.7
583.9052,144.8
583.9621,151.2
584.0824,82
584.0918,181.9
584.2877,63.7
584.3117,6149.5
584.6648,1655
584.7751,768.7
584.9345,93.8
585.2743,136.5
585.3147,942.2
585.4089,813.2
585.449,50.3
585.6922,67.6
585.756,93.4
586.0349,41.1
586.0542,109.4
586.2496,652.5
586.3098,6186.1
586.6613,158.4
586.8414,1711.2
586.9145,923.3
587.0091,201.1
587.3121,1255.4
587.4598,48.4
587.7854,86.5
588.0512,377
588.1275,436.9
588.3354,47.5
588.5097,18.9
588.5534,75.5
588.8371,1786.2
588.8756,52.7
588.996,154.3
589.1454,526.1
589.5735,103.6
589.5928,47.8
589.9451,118.6
590.0086,445.9
590.0409,98.3
590.1344,475.9
590.1584,21.3
590.3018,131.2
590.3219,9212.2
590.4663,71.7
590.7277,259.3
590.7572,64.7
590.8321,454.4
590.9244,1490.9
591.145,18.9
591.2265,117.4
591.3249,1887.3
591.3513,538.8
591.4287,41
591.4572,1138.5
591.5316,235.4
591.5706,102
591.5925,135
592.2546,817.8
592.3371,3221.6
592.3835,65.1
592.4747,68.8
592.6486,79.3
592.8578,9769.7
592.9377,213.7
593.2519,390.5
593.4756,1191.7
593.5098,667.2
593.6026,328.5
593.6538,64.9
594.3025,19.7
594.5647,527.8
594.6596,56.7
594.8548,6471.5
594.9408,217.8
595.3654,374.5
595.654,21.9
595.7406,98.2
595.8596,965.5
596.8522,1701.5
596.87,1447.1
597.4495,5504.5
597.4859,5188.1
597.7017,49.9
597.7235,239.1
597.8638,875.8
597.9985,139.2
598.1201,780.9
598.1592,114.9
598.4551,1594.4
598.5076,236.9
598.8226,181.3
599.0034,473.4
599.2691,64.2
599.2766,64.6
599.3792,509.5
599.4244,844.9
599.4638,3742.1
599.504,1250.2
599.6396,19.1
599.706,201.9
599.8547,239.7
599.8607,234.1
600.0164,480.3
600.2806,3203.9
600.4718,101.5
600.525,255.6
601.3289,200.9
601.3711,128.6
601.39,24.7
601.4604,40.8
601.4866,140
601.5185,580.6
601.5767,214.2
601.6084,19.8
602.228,277.8
602.2962,823
602.3543,205.3
602.4246,391.8
602.4428,422.1
602.5196,83.3
602.5898,100.9
603.5367,28.7
603.7706,91.4
603.809,61.7
603.8872,50
603.9893,51.2
604.3116,831.1
604.6549,511.7
604.8135,451.7
604.8845,837.4
605.1062,120.3
605.277,752.5
605.8652,706
606.238,92.2
606.2968,1346.9
606.6049,58.2
607.1706,2822.2
607.252,866
607.2938,576.1
607.4491,109.9
607.9256,153.5
608.161,253.4
608.7285,131.3
608.8082,195.4
608.8316,1968.9
608.8841,78.7
609.0956,125
609.1476,208.5
609.6508,20.2
609.8308,230.3
610.0464,200.3
610.2051,19.5
610.3789,294.7
610.5467,769.9
610.6943,377
610.8288,3143.5
611.6239,125
611.7101,172.6
611.7661,200.8
611.794,560.3
612.1113,21
612.2605,529.3
612.269,497.8
612.3241,1493.5
612.4027,299.4
612.4797,540.8
612.7665,865
612.795,107.8
612.9812,123.5
613.3286,961.9
613.3463,979.3
613.4382,1139.4
613.5703,52.7
613.6352,57.4
613.7286,217.6
614.2706,52.2
614.4943,67.3
614.5122,122.3
615.1174,89.7
615.2235,230.8
615.4598,2910.9
615.6526,1013.2
615.8716,81.2
615.9292,879.7
616.3886,670.3
616.5351,55.3
617.0182,169
617.3434,384.2
617.4755,27317.5
618.4425,79.8
618.479,5673.5
618.5851,226.3
618.8591,49.7
618.9856,376.5
619.1248,66.6
619.2275,19.8
619.3802,472.6
619.4913,34865.2
619.5179,47.4
619.9878,119.9
620.0261,98.6
620.0568,547.8
620.0927,77.3
620.3968,18.6
620.4945,9055.6
620.6757,125
620.8912,362.6
621.1139,50.8
621.4494,2659.9
621.4855,2940.7
621.9978,417.8
622.2378,40.7
622.3555,679.1
622.491,499.5
622.652,172.2
622.7154,947.7
622.786,88.1
622.8108,159.9
622.8225,181.9
623.046,91.2
623.136,30281.8
623.2178,814.9
623.5012,1507.8
623.5387,321
623.9061,592.6
624.1398,4568.9
624.1831,347.8
624.4376,41.5
624.4756,319.2
624.4812,311.1
624.7455,784.4
624.8959,81.6
625.126,714.1
625.1425,387.6
625.1567,167.6
625.2007,148.3
625.2411,98.2
625.3242,999.6
625.3827,206.1
625.5004,267.8
625.5179,282.3
625.6258,536.8
625.7987,65
625.8679,1333.7
626.0632,47.9
626.3438,54.5
626.5624,250.5
626.7433,979.1
626.8256,410.2
626.9814,276.9
627.1296,60.7
627.2006,46.4
627.5361,346.7
627.6332,49.9
627.856,20.6
628.1888,938.9
628.2658,137.9
628.3297,46.4
628.3539,17.7
628.5197,295
628.5369,21.9
629.0196,448.3
629.1529,41601.5
629.1877,89.5
629.5551,89.9
629.7313,158.6
629.9835,359.2
630.0116,96.6
630.0256,857.6
630.1565,6609.9
630.2161,50.3
630.3246,308.5
630.5125,136.7
630.5381,137.2
631.0024,187.4
631.0775,54.2
631.129,1332.2
631.1571,563.8
631.1944,55.7
631.2485,67.4
631.4575,346.1
631.881,856
632.0062,306.1
632.1324,523
632.2519,60.5
632.4107,388.3
632.4345,665
633.08,213.2
633.2186,329.3
633.4504,5510.3
633.6764,92.4
633.903,218
634.0381,673.3
634.336,181
634.4909,212
634.8435,2771.6
634.9098,56.5
634.9491,466.1
635.0286,236.3
635.1248,641.4
635.4043,294.8
635.4648,4829.8
635.4857,855.8
635.8845,172.7
636.1264,1031.3
636.2264,489.6
636.4233,363.1
636.6942,359
636.84,3019.5
637.2605,41.6
637.293,94.8
637.8444,447.5
637.8598,118.9
637.9728,212
638.0368,885.3
638.2461,65.8
638.4527,703.1
638.5408,78.5
638.6856,306.8
638.7395,51
638.8376,809.3
639.1963,181.8
639.4417,236
639.4923,80.6
639.6526,52.9
639.6764,120.7
639.7505,360
639.8505,79.3
639.9891,108.6
640.2077,83.5
640.3463,199.7
640.4866,556.1
640.6032,339.9
640.8523,426.3
641.1269,164.5
641.512,135.4
641.7042,225.3
641.7657,112.1
642.1538,749.3
642.6059,44.1
642.6449,20.2
643.264,314
644.187,178.8
644.8713,746.9
644.9083,46.9
645.1178,21272.7
645.4535,64.1
645.7614,452.2
645.7816,52.5
645.9637,140.9
646.1217,2947.7
646.1458,88.2
646.3553,589.6
646.4282,951.8
646.4589,497.2
646.5028,43.1
646.8915,133.4
646.9291,1015.7
647.0375,347.6
647.0939,2855.4
647.1217,262.7
647.4525,50.4
647.5226,202.2
647.5646,155.7
647.9029,220.3
647.9507,75.2
647.9983,631.4
648.0979,254.5
648.3857,596.3
648.6819,54.3
648.6972,212.6
649.2348,253.3
649.4897,834.9
649.59,21.9
649.6498,320.4
650.3432,444.3
650.4106,162
650.4397,3238.4
650.4722,579
650.8172,2505.7
651.0596,17.1
651.0968,50.2
651.1348,57589.8
651.873,226.9
652.1384,9267.7
652.3437,56
652.5802,195.3
652.6715,138.2
652.8142,1910.2
652.9954,331.6
653.069,196.1
653.1109,1732.5
653.1388,461.6
653.183,922.7
653.4011,748.3
653.5104,60.4
653.5505,198.6
654.115,69.8
654.2834,52.7
654.5655,64.4
654.6179,280.2
654.6543,20.7
654.6916,147.7
654.7322,140.6
654.7866,83.5
654.9893,669.8
655.0029,296.7
655.1118,88.8
655.1996,454.2
655.3495,45.6
655.636,184.7
655.7522,109.9
655.8093,45
656.2467,19.3
656.445,567.2
656.9399,18.7
657.0317,844.8
657.0899,19.4
657.252,652.1
657.2776,153.3
657.5886,332.9
657.9603,43
658.3019,73.3
658.5925,58.6
658.9288,1101
658.9662,195.5
659.3053,60.8
659.417,61
659.8711,17.3
660.0616,47.9
660.0826,206
660.4441,1285.9
660.5953,409.4
660.8424,145.8
661.0453,70.5
661.0826,10159.2
661.1533,922.8
661.2267,109.9
661.3149,157.7
661.4266,801.2
661.469,74.1
661.9122,665.4
662.0237,65.5
662.0868,1086.2
663.0137,54.9
663.0903,53.6
663.1122,502.8
663.4555,154
663.4767,47.5
663.5618,345.8
664.4014,57.1
664.454,349.1
664.7252,244.8
664.8933,274.1
665.0324,282.8
665.4642,706.5
666.1709,214.1
666.4558,57.9
666.4828,999.1
666.5629,614.2
666.5857,176.1
666.7877,407
667.0995,33699.9
667.1679,138.7
667.1997,19.4
667.3433,251.8
667.4821,797.5
667.678,48.6
667.8252,20.5
667.9121,77.3
667.9723,624.9
668.0097,632.4
668.0307,161.3
668.1036,4442.1
668.3545,59.2
668.7927,1293.5
668.9659,242.6
669.0753,470.1
669.0852,489.6
669.1078,107.6
669.1864,203.3
669.6383,190.8
669.8402,68.5
670.0931,65.9
670.1475,691.5
670.2119,54.9
670.4997,648.5
670.674,265.5
670.9492,63
671.124,134
671.1423,146
671.4404,99
671.8461,22.1
671.9929,71.8
672.3764,56.4
672.4216,6309.7
672.7494,408.7
672.7977,402.5
673.0334,63.4
673.1168,83695.9
673.4249,1055.2
674.1205,16780.9
674.4046,443.1
674.9988,905.8
675.0336,473.5
675.0927,1463.5
675.1212,551.2
675.331,21.3
675.448,247
675.5013,237
675.5436,14060.8
675.8922,177.9
675.9113,191.2
676.0457,181.7
676.2404,155.2
676.2573,296.9
676.2699,631.8
676.4,50.8
676.4499,348.2
676.5482,1514.3
676.7012,74.8
676.9227,184.1
676.9697,64.7
677.0415,47.7
677.2807,116.2
677.4372,661.3
678.3209,50.9
678.3941,89.5
678.8346,218.6
679.0714,650
679.1783,221.6
679.2184,135.2
680.2434,497.1
680.5536,805.2
680.629,476.3
680.6921,684.3
680.8761,49.6
681.2302,43.6
681.2657,447.9
681.3671,742.7
681.4042,109.5
681.4817,287
681.5291,81.7
682.0645,558.5
682.1765,102.8
682.8359,56.1
683.0641,5927.8
683.5042,52.2
683.6423,106.7
683.6856,56.1
683.841,696
683.9416,19.7
684.0677,143.7
684.2388,60.9
684.4629,53.4
684.5604,258.2
685.051,202.4
685.2006,465.6
685.4359,5676.3
685.4863,166.7
685.9715,103.8
686.2648,284.6
686.4392,467
686.5232,302.8
686.8611,432.1
687.2081,131.3
687.3128,377.7
687.8159,791.7
688.1747,750.7
688.4165,3782
689.021,144.9
689.0812,26064.7
689.0905,23989
689.1393,335.1
689.5594,3756.6
689.6999,314.8
690.0607,56.5
690.0958,2694.1
690.4598,123.2
690.5653,64.3
691.057,145.6
691.0869,528.5
691.3654,225.5
691.6992,131.5
691.8285,242.9
692.077,101.9
692.7577,88.6
693.0051,212.8
693.035,193.6
693.2503,50
693.3252,185.4
693.7353,72.6
694.0421,24.6
694.2782,134.6
694.3865,410.4
695.0703,738
695.0988,58319.8
695.3988,18.6
695.5104,2297.3
695.9312,139.5
696.1022,9823.9
696.7957,592.2
696.9409,99.3
697.0727,140.7
697.1026,237.2
697.1515,51.7
697.1578,52.5
697.4299,65.7
697.526,25271.1
697.7437,926.5
697.7758,468.5
697.7946,55.7
697.9998,765.7
698.0284,65.1
698.076,68.8
698.1058,21.6
698.3678,188.6
698.4037,326.7
698.4233,144
698.5294,6509.9
698.8722,88.5
699.4003,202.3
699.4571,134.6
699.6368,665.8
699.6768,73.7
699.7577,120.7
699.9788,532.3
700.4572,660.3
700.584,100.8
701.4094,174.5
701.5597,25925.9
701.6653,92.5
701.7343,43.6
702.0596,439.7
702.3226,47.4
702.3419,309.9
702.5632,8103.6
702.6089,53.1
703.2383,127.2
703.5755,62704.2
703.6146,84.4
703.792,166.7
704.0505,206.5
704.1646,356.2
704.2211,241.4
704.2488,363.4
704.4483,5299.7
704.5286,347.5
704.5789,23197.3
705.0542,5242.9
705.2114,144.5
705.2461,52.9
705.451,680.3
705.5819,1868.2
705.6169,62.5
705.8999,103.6
706.5402,753.9
707.0349,66.9
707.0597,100.8
707.5103,241.1
707.544,58.5
707.9877,64.1
708.1116,71.2
708.1686,140.8
708.3935,23.4
708.788,97.1
708.8189,76.6
709.3691,249
709.8708,76.2
709.9745,66.1
710.4567,487.2
710.485,865.9
710.5544,41.6
710.6092,155.4
710.6933,167.6
710.7744,603.8
711.0217,65.7
711.0629,17860.4
711.0735,20873.4
711.2177,52.9
711.3458,128.3
711.4198,219.5
711.5416,4999
711.8127,680.8
712.0776,2040.9
712.1803,44.5
712.3198,80.2
712.7677,339.3
712.8481,503
712.9511,63.2
713.0701,332.3
713.4977,1788.8
714.2359,107.5
714.7053,19.3
714.7297,230.4
715.0124,334.9
715.0652,68.9
715.3956,396.5
715.7218,118.2
716.0283,75.1
716.6028,89.1
717.0371,127.6
717.0807,31531.9
717.6116,62.3
717.7203,451.6
717.7759,376.7
718.0066,260.4
718.0843,2878.9
718.2353,107.7
718.4192,173.5
718.5991,64.2
718.6612,72.1
718.7991,93
719.0526,205.2
719.2365,49.7
719.522,167.7
719.7701,141.7
719.8843,368.2
719.9065,58.9
720.3785,257.8
720.4393,179.3
720.4571,304.5
720.5312,226.2
720.6729,68.5
721.1467,101.7
721.4782,39677.6
721.802,117.9
722.1136,145.6
722.3833,68.7
722.4811,14101.5
722.555,172
722.6613,379.4
722.8851,642.5
723.3027,68.5
723.3362,62.1
723.4163,588.3
723.4929,5302.3
723.5417,37923.6
724.0187,749.4
724.1247,106.8
724.2115,50.3
724.2444,649.4
724.3256,1146.1
724.4921,81.5
724.5452,17104.6
725.066,477.1
725.5575,78887.2
725.6118,112.9
725.7474,829.3
725.7683,20.2
725.862,92.1
726.561,28468
727.0338,3132.2
727.1516,804.1
727.2325,196.5
727.2563,73
727.5635,2755.9
728.3127,76.8
728.4099,54.4
728.5197,3228.3
729.0343,455.1
729.0621,419.4
729.0971,78.6
729.4018,354.5
729.5136,41
729.5283,910.7
729.5908,5512.7
729.6538,428
729.8313,105.6
729.903,851.8
729.9947,466.6
730.0426,17.8
730.1612,734.1
730.4509,100.7
730.5387,10012
730.5947,1322.5
731.0234,149.6
731.1573,97
731.2443,1002.3
731.542,2648.6
731.561,514.1
731.6068,948.1
731.7157,80.9
731.999,275.3
732.2176,121.2
732.39,22.2
732.5225,714.3
732.5545,45410.9
732.6094,128.3
733.0446,8959.1
733.0564,13475.7
733.3755,178.3
733.5579,19771.4
733.7582,96.3
733.8006,84.3
734.0078,50.6
734.0598,818.1
734.4016,428.3
734.5707,2861.3
734.6033,189.8
734.7022,86.6
735.2212,94.1
735.2921,73.1
735.3142,65
735.5255,54.5
735.5748,2286.2
735.5938,358
735.6344,161.5
736.1719,213.1
736.2496,212.7
737.2707,318.8
737.4527,8523.8
737.5108,93.7
737.5461,230.8
737.7129,40
737.8443,510
737.8908,136.1
738.0458,103.3
738.0939,422.3
738.1577,136.7
738.1959,260.4
738.3231,145.6
738.4592,957.8
738.5079,88.7
738.5858,97.5
738.6051,252.9
738.9599,103.7
738.9909,665.6
739.0265,898.9
739.0627,19155.8
739.165,65.2
739.4677,901.4
739.5169,2596.5
740.0667,1603.6
740.1505,208.2
740.3803,161.9
740.5191,938.4
740.6637,88.3
740.6802,374.6
741.0376,856.4
741.0652,236.3
741.17,317
741.4869,143.6
741.4977,157.8
741.5317,8408.3
741.6423,200.8
741.6798,222.7
741.7854,65.6
741.8495,129
741.9589,60.6
742.322,49.4
742.339,163.3
742.4102,63
742.4347,190.4
742.5109,487.7
742.5345,4443.8
742.5754,3075.3
743.1407,194.7
743.4255,86
743.5783,260.1
743.6477,122.7
743.6696,100.6
743.8033,52.9
743.9146,51.4
744.1296,917.7
744.197,182.8
744.3106,719.1
744.4538,313.7
744.5548,5825
744.5912,2848.4
745.352,858.5
745.4786,21997.3
745.5613,283.5
745.595,400.4
745.7533,49.9
745.888,38.2
745.9287,223.7
746.0697,429.8
746.4823,4804.3
746.5064,68.9
746.5716,1885.6
746.6076,393.7
746.8879,315
747.0614,223.7
747.151,94.2
747.2193,64.3
747.4941,7692
747.5752,85.2
747.8012,53.3
747.9415,403.4
748.0017,109.7
748.4924,266.6
748.5449,312.3
748.6998,43.8
748.8231,56.6
749.0195,1915.1
749.4424,219.6
749.4621,57.3
749.509,3232.6
749.7338,266.4
750.0029,207.2
750.0341,530.8
750.1129,382.3
750.3035,477.4
750.5129,238.8
750.5574,1020.1
751.1099,117.5
751.2165,220.4
751.5727,6635.7
751.7688,435
752.0306,282.9
752.4222,947.8
752.5208,13007.3
752.54,48.5
752.7037,67.2
753.5243,4060.4
753.5598,371.1
753.5894,1643.5
753.6481,69.3
753.833,57.1
754.4971,133.2
754.5368,53673.4
754.5672,54.9
755.0249,3756.7
755.039,9164.7
755.54,22113.2
755.6945,769.5
755.7543,47.1
755.8844,149
755.9695,18
756.0515,95.3
756.085,57.7
756.4243,46.2
756.5543,41097.8
756.6314,228.6
757.1785,82.9
757.2536,1405.3
757.3089,428
757.3855,49.5
757.5574,18674
757.6247,494.1
757.8081,78.7
758.0215,183.2
758.0751,20.7
758.117,101.9
758.5701,703541.3
759.1282,52.3
759.4208,370.6
759.4932,70.6
759.5192,689.1
759.5735,308177
759.604,360.5
759.6373,853.4
759.7021,73.2
760.409,59.5
760.4401,95
760.5868,259084.5
760.6392,198.6
760.7934,59
761.0447,8325.7
761.4556,876.4
761.5895,127627.9
761.843,175.6
761.9748,86.9
762.0375,937.2
762.274,228.9
762.5922,25263.9
762.8532,75.1
763.0447,134.1
763.3427,47
763.5178,921.6
763.5959,1317.4
764.0187,392.5
764.3721,19.8
764.517,75.8
764.5609,742.2
764.6376,333.5
765.0426,231.7
765.1691,59.9
765.2254,61.5
765.3002,995.8
765.4896,21.1
765.9998,98.8
766.1458,97.3
766.1696,865.1
766.2373,240.6
766.4071,417.2
766.4997,79.7
766.5359,4760.6
766.5752,13051
766.6999,714.7
767.0259,51.4
767.5382,1086.2
767.5775,4377.9
767.7243,263.1
767.9668,249
768.1015,651.9
768.2607,196.4
768.4155,150
768.495,1834
768.5525,5101.2
768.591,17681.5
768.7337,67.2
768.8147,356.5
768.8877,331.4
769.0656,50.3
769.2846,472.9
769.4722,226.3
769.5584,2089.2
769.5944,9429
769.6356,253
769.792,83
770.0627,58.1
770.5108,7415.9
770.5684,963.7
770.6075,973.7
770.9542,368.5
770.9927,3989.8
771.0124,945
771.2562,694.2
771.5132,1304.2
771.574,193.7
771.6094,59.4
772.003,158.6
772.0439,288.4
772.2544,201.8
772.3126,357.6
772.3468,94.6
772.5864,8490.8
772.8462,20
772.922,60.9
773.0004,55.9
773.2338,61.5
773.4719,169.1
773.5112,872.9
773.5895,1194.5
773.6528,97.7
773.8715,80.1
773.9739,100.7
774.0922,769.8
774.1107,171.6
774.5696,705
774.9966,96.9
775.0285,216.5
775.3772,341.7
775.4999,149.6
775.5254,737.4
775.8843,449.2
776.036,421.4
776.3261,320.1
776.3846,1528.6
776.4876,21.2
776.521,6049.2
776.5986,100.9
776.7785,167.7
777.0072,4864.7
777.2257,52.2
777.6143,143.2
778.0204,638.1
778.2978,93.6
778.3502,56.3
778.5364,43945.1
778.7275,227.5
778.9492,337.7
778.9701,22.1
779.5086,543.4
779.5403,16379
779.5772,1274.1
779.8657,22.3
780.3071,113.3
780.5522,687698.3
780.6046,183.2
780.8017,836
781.2514,116.4
781.5557,304415.8
781.6182,217.8
781.7249,773.1
782.2392,57
782.5697,534700.3
782.6825,243.4
782.881,975.9
783.0267,12186.6
783.5729,257154.1
784.0269,340.8
784.3742,75.9
784.5865,250568.6
784.8389,160
785.0658,18.2
785.1414,452.3
785.4331,116.9
785.5895,123722.6
785.6547,2421.4
785.9954,103.6
786.0668,221.5
786.3185,161.2
786.6021,204157.4
786.6597,406.8
786.6972,230.9
786.7902,60.5
786.8904,259.6
787.5684,72.9
787.6052,90028.4
787.6701,572.2
787.8348,89.2
788.4364,85.7
788.5576,5099.5
788.605,12574.8
788.6202,19004.3
788.7422,231.1
789.139,60.7
789.4281,179.8
789.5625,2275
789.6219,8972.5
789.6925,141.4
789.7208,182.3
789.767,53.8
789.825,322.4
790.5474,971.2
790.5742,12203.6
790.6239,546.1
790.9412,160.1
791.2414,157.9
791.2739,94.9
791.576,3490.5
791.6311,108.9
791.7952,66.4
792.0653,133.5
792.3643,465.8
792.4321,141.2
792.5487,679.3
792.5908,5251.5
792.7006,1378.7
792.9826,267.1
793.1733,58.2
793.3749,650.6
793.5956,448.9
793.6748,2216.7
794.3765,140.9
794.5115,4512.1
794.5677,5316.8
794.607,19158.9
794.644,1113.8
795.3062,144.7
795.5709,883
795.61,7804.8
795.8003,102.6
796.5261,132808.7
796.5849,4301.8
796.6233,2593
796.9206,56.9
797.1238,445.8
797.4796,171.4
797.5293,59717.1
797.5943,465
797.6263,196.1
797.8782,56.2
798.5429,39778.5
798.6046,367.4
798.8376,639.9
799.0018,2980.3
799.5457,17074.7
799.6059,238
799.6674,1160.2
800.4196,166
800.4411,614.4
800.5507,72.4
800.6734,94.4
800.8464,66.5
800.9269,214.1
801.0274,95.4
801.177,61.5
801.4014,992.2
801.5395,333.7
801.6402,676.3
801.7044,57
801.727,580.7
802.2248,927
802.2469,59.4
802.3644,184.9
802.5364,48793.6
802.7878,259.5
803.1085,746.3
803.5401,18798.7
803.7459,25.1
803.9224,244.4
804.1851,79.9
804.3605,67.5
804.5049,84.7
804.5523,334261.3
804.8074,52.8
804.8339,53.6
805.0562,71.6
805.3289,279.1
805.5555,154259.4
805.7651,54.5
806.5033,307.9
806.569,289431.8
806.7431,178.5
806.8625,84
807.0677,497
807.2056,436.8
807.4169,91.3
807.5721,144078.7
807.6983,234.5
807.7655,66.3
807.8869,829.9
808.0543,469.7
808.0837,46.2
808.5851,201737.1
808.7876,441.3
808.97,69
809.1542,57.7
809.4919,69.4
809.5881,98168.3
809.8527,319.8
809.8978,112.6
809.9138,68.3
810.6022,116049.3
810.9813,109.3
811.3573,64.8
811.5035,46.2
811.5653,281.4
811.6051,56942
811.6698,2533.1
811.7058,55.7
811.8398,326.7
812.0402,139.7
812.3413,312.3
812.5745,773.3
812.6191,31281.5
812.672,449.7
812.9453,82.1
813.6216,17298
813.6858,3093.9
813.8003,20.3
813.8906,319.2
814.1297,156.8
814.1734,44.9
814.4792,188.4
814.6244,1806.4
814.6658,82.4
814.6896,1065.9
814.7517,129.1
814.9427,1271.5
814.9752,613.1
815.1394,73.3
815.2002,367.6
815.5618,779.3
815.5949,565.1
816.0501,666.8
816.1819,52.6
816.5887,11485.5
816.8152,219
816.8579,717.2
817.0726,181.8
817.1878,62.9
817.2219,39.4
817.3612,63.1
817.5908,2437.9
817.9063,196
818.4542,134.5
818.5119,1965.3
818.5689,287.9
818.6038,860.4
819.0467,356.5
819.5236,134.2
819.6086,370.7
819.7985,249.1
819.8747,816.5
820.3411,80.4
820.5261,69489.6
820.5881,512.6
820.8641,60
821.1217,64.2
821.5295,29132.4
821.629,67.8
821.6535,96.1
821.8745,889.6
822.5425,41183.4
822.6679,83.5
822.7778,437
822.8535,470.6
823.1218,263.9
823.5449,17994.7
823.5792,365
823.6207,201.4
824.138,456.8
824.558,25607.5
824.85,323.1
825.0396,813.5
825.4195,724.8
825.5607,12059.2
825.6206,80.5
826.1245,66.4
826.2525,840.1
826.3173,135.7
826.4049,175.7
826.5338,102.6
826.5725,104.8
826.9743,408.7
827.0347,321.3
827.057,111.7
827.0726,58.2
827.1916,52.1
827.3784,115.5
827.4503,52.8
827.7823,25.4
827.9854,48.5
828.0854,65
828.5166,21.3
828.5522,80835.7
829.2947,868.7
829.388,193.7
829.5556,40442.3
829.6966,789.4
829.8232,830.5
830.0723,1593.3
830.1994,74.1
830.3129,89.3
830.5688,60322.3
830.8784,204.3
831.2429,152.9
831.4029,154.8
831.5001,50.4
831.5714,28592.7
831.6361,436.4
832.0853,227.2
832.1692,160.8
832.2228,63.3
832.3813,564.3
832.5098,59.2
832.5842,81623.9
832.6876,280.1
832.739,109.3
833.0641,42.8
833.2231,19.2
833.3103,58.3
833.5439,177.3
833.5877,39389.9
833.6511,81.5
833.7076,391.1
833.9807,534.7
834.0458,297.2
834.2656,549.8
834.3105,306
834.6015,37209.6
834.6455,109
834.813,1533.4
834.9685,454.2
835.0706,406.6
835.2611,666.8
835.6039,15494.3
835.6698,1190.2
835.7556,123.1
835.8275,226
835.9919,799.6
836.2006,378.9
836.3123,76.9
836.39,114.3
836.4862,192.3
836.5564,103.9
836.6195,1333.3
836.6718,134.6
837.6208,729.8
837.6692,88.1
837.717,1025.8
837.8304,190.2
837.9578,96
838.0015,131.1
838.1645,94.6
838.5118,1400.7
838.6208,49.5
838.6371,141.8
838.6755,164.4
839.577,939.4
839.7317,67.2
840.5228,180.4
840.5792,900.6
840.7496,71
840.7786,240.9
840.8202,979.5
840.8333,1012.4
840.8423,941.6
841.0321,72.1
841.1161,113.6
841.1773,943.9
841.5264,132
841.5779,54.9
841.6755,74
841.7342,215.3
842.5937,479.1
842.8022,568.5
843.3248,185.9
843.961,65.4
844.2295,74.1
844.4427,752.1
844.5258,13055.7
844.8565,638.8
844.9054,223.5
845.1902,90
845.2561,845.3
845.2836,87.3
845.5304,3807.4
845.6031,146.2
845.7081,61.4
845.8543,305.1
846.216,18.7
846.5414,7808.2
847.0588,833.9
847.4677,366.6
847.546,618.3
847.6542,2006.9
847.9429,159.4
848.2484,1517.7
848.5577,11040.9
848.9198,178.2
848.9695,446.1
849.375,116.3
849.4422,949.6
849.5082,189.8
849.5597,3881.5
849.6529,288.3
849.7399,88.7
849.8204,141.2
849.9386,1111.7
849.968,713
850.3733,47.2
850.5751,801.6
850.8682,20.3
850.9063,419.6
851.3681,220.7
851.4754,1007.5
851.5041,949.3
851.5763,156.1
851.5884,130.9
851.6029,124
851.7763,259.8
851.8525,72.7
852.1003,703
852.3904,72.1
852.4992,52.3
852.6352,98.4
852.8766,261.8
853.0462,74.9
853.2451,146.6
853.311,1361.5
853.8038,545.8
854.2919,111.2
854.4662,82.7
854.8576,150
854.9408,107.1
855.0102,104
855.7427,130.6
855.8906,1868.3
856.5267,92.1
856.5843,4437.8
857.2401,301.3
857.38,67
857.4455,1268.9
857.5891,2469.9
857.7976,341.4
857.9446,69.9
857.9588,60.9
858.2419,644.5
858.6002,357.3
859.3502,96.3
859.453,409.4
859.8689,413.4
860.7166,244.4
861.1216,283.3
861.318,701.1
861.6872,65.2
861.8627,108.2
862.3765,343.4
862.4058,20.2
862.7531,160
862.885,765.4
863.0068,236.8
863.0216,218.9
863.3033,89.5
863.4353,52.3
863.6498,20.5
864.3305,1331.8
864.74,58.9
865.4754,69.8
865.9139,236.1
866.077,816.7
866.3378,147.5
866.4094,111.9
866.4968,89.8
866.5381,439.7
866.7709,859.1
867.249,188.5
867.4017,95.5
867.4503,458.7
867.9016,380.7
867.9603,495.5
868.3575,185
868.7012,224.5
868.9323,491.8
869.0834,97.2
869.555,21.4
869.6258,492.3
869.7417,22.2
869.7982,176.7
869.8339,347.7
869.8904,742.3
869.9359,1538.2
869.9779,1592.6
870.0387,1150
870.0538,1271.4
870.0822,4023.6
870.1154,3596.3
870.1568,1689.8
870.2046,2422.3
870.2319,2473.5
870.2528,1946.4
870.2766,1050.4
870.2935,1603.8
870.3502,808.6
870.4171,68.5
870.4643,878.2
870.516,967.9
870.6817,56.1
870.7744,19.5
870.8921,43.7
871.4584,1031.9
871.9654,109.7
872.2598,210
872.5641,23.5
872.6537,47.1
873.566,66.9
873.9812,69.8
874.375,264.1
874.6634,641.5
874.7528,532.9
874.9215,107.7
875.2759,419.1
875.5386,70.7
875.7728,932.9
875.959,87.8
876.148,953.2
876.3562,119.4
877.1184,227.8
877.5676,165.7
877.6318,644.8
877.8475,476.8
878.442,104.9
878.6636,62.6
878.8895,183
879.1452,98.7
879.4112,136.3
879.5523,967.3
879.7702,272
880.0519,2640.2
880.088,854.8
880.5725,100.1
880.5849,86.6
880.6149,129.9
880.9182,61.5
881.0662,365.8
881.2277,98.9
881.4711,54.9
882.0108,96
882.5283,125.9
882.5989,238.5
882.7579,187.5
882.8327,80.9
882.8666,106.9
882.9612,250.3
883.6237,213
883.8665,56.1
884.0485,621.7
884.5638,80.4
884.7207,567.7
885.2576,1239.7
885.7876,74.2
886.0764,784.8
886.5564,1007.8
887.2428,221.1
887.8381,542.8
887.895,141.8
888.0416,676.9
888.2796,525
888.6241,97.3
888.7713,168.3
888.8276,130.4
888.8578,176.4
889.6121,1018.4
890.1653,1326.4
891.6122,21.3
892.0535,57.9
892.2398,156
892.3358,85.4
892.5243,58.7
892.9198,18.7
893.2388,229.8
893.5611,688.1
893.6985,816.5
893.7554,791.6
893.7865,265.2
894.1072,292.6
894.1851,838.3
894.8218,325.3
894.8924,79.6
895.4491,92.4
895.4864,792.9
896.0218,542.4
896.4013,860.5
896.6578,85.4
896.8066,563.6
896.8367,363.3
897.2129,19.9
897.2271,18.7
897.4485,787.8
897.5995,58.5
897.8758,277.2
898.274,697
898.2993,95.2
898.6536,154.5
898.7661,782.2
899.4957,763.1
900.1561,39.5
900.1972,199.2
900.5858,490.1
900.7852,715.2
901.0028,613
901.4839,693.3
901.8458,163.5
902.1542,148.2
902.3423,759.7
902.4571,49.3
902.6122,106.3
903.0776,268
903.3737,103
903.4036,978.2
903.7272,353.2
903.7681,61.8
903.822,62.2
903.8487,813.6
903.9147,272.2
904.2513,778.6
904.3318,94
904.5859,456.1
904.9658,84.8
905.0473,46.3
905.0971,22.6
905.3657,862.4
905.7206,271.1
905.7786,234.8
906.1218,289.1
906.6511,67.1
906.8335,196.4
906.9874,60.4
907.6294,71.2
907.8871,542.1
908.627,489.4
909.2213,654.4
909.2611,1144.9
909.2852,1079.3
909.4228,75.2
909.601,43.2
910.5919,51.9
910.925,60.7
911.2543,419.1
911.7587,743.1
911.8795,259.5
912.2262,211.1
912.7673,128.3
913.2694,156
913.5609,1542.8
913.9901,494.7
914.473,710.9
914.5765,55
914.6386,802
914.855,280.9
915.2139,62
915.9117,910.9
916.8636,173.9
917.0573,53.2
917.2936,144.6
917.495,1676.4
917.5834,596.5
917.7087,1532.6
917.7608,946.3
917.9388,924
918.1435,80.5
918.3552,21.3
918.9522,981.4
918.9796,469.1
919.0492,967.7
919.2121,359.3
919.4114,24.1
919.6386,108.6
919.7249,1352.7
919.8492,60.1
919.9229,816.7
920.0655,21.4
920.8981,192.8
921.0507,17.8
921.2461,149.2
921.4339,2113.2
921.9168,1102.6
922.0527,114.1
922.4089,190
922.6124,877.6
922.8757,1880.6
922.9538,98.8
923.6333,73.9
924.1089,1489.4
924.3749,131.7
924.695,70
924.7467,669
925.1337,678
925.5811,333.2
925.7211,601
926.1169,534.8
926.1488,48.7
927.0868,641.5
927.8363,521.9
927.8589,91.3
928.1593,131.2
928.3731,370.5
928.5506,74.2
928.6249,243
929.0727,143.8
929.3779,488.4
929.5436,201.6
929.9024,222.7
930.0308,1704
930.195,227.2
930.3467,184.9
930.3917,554.4
930.4166,667.7
930.4829,771.7
930.5372,84
930.816,272.5
931.081,52.6
932.9758,65.4
933.2276,49.9
933.3239,503.2
933.4921,53.4
933.6291,145.9
933.7671,152.8
933.8976,50.7
933.9479,62
934.4732,417.9
934.9608,125.8
935.107,315.7
935.3914,377.3
935.5514,192.8
935.6613,115.6
935.7342,196.5
935.7952,51.4
936.1605,323.4
936.2247,71.7
936.4468,1075.1
936.4859,643.5
936.5644,502.3
936.5876,425
936.8849,65.5
937.3511,507.3
937.3971,1372.5
937.6075,891.7
937.8409,331.4
937.918,298.9
938.0796,902.6
938.1264,439.1
938.1803,368.9
938.3254,523.8
938.6218,90.1
938.7098,59.7
938.7404,1055.9
938.8918,116.3
940.0177,430.8
940.6707,526
940.791,2358.5
941.2003,528.4
942.4538,385.7
942.5433,305.4
942.8128,725.8
942.8439,1055.4
943.2201,125.4
943.4881,60.8
943.5136,249.4
943.7849,2308.7
944.0252,63.5
944.2187,273.4
944.2587,122.6
944.2991,110
944.4323,105.8
945.0949,900
945.325,127
945.6149,95.5
946.1092,79.1
946.2039,424.8
946.3793,822
946.9895,439
947.3293,1660.6
947.5729,102.5
947.9376,1599.7
948.0414,90.4
948.0843,1202.6
948.3174,45.1
948.5073,461.9
948.9342,64.7
949.687,559
949.9539,56.7
950.0955,125
950.2419,1203.8
950.3986,179.8
950.4301,21.6
950.997,930
951.7701,84.6
951.966,178.4
952.01,247.3
952.2092,817.3
952.4104,286.2
952.8892,213.2
952.9347,990.8
952.9532,795.4
953.557,55.8
953.8212,757
953.8627,297.7
954.6513,832.7
954.6941,1160.7
956.9223,81.1
957.0282,49.4
957.1747,197.1
957.2127,57.9
958.265,110.9
958.4676,54.6
958.5129,82.2
958.6207,707
958.7523,128.1
961.4773,108
961.5209,142.3
961.6133,220.1
961.8696,314.2
961.9856,861.4
962.1551,66
962.3672,147.3
962.4685,91
962.8829,342.6
963.1076,705.1
963.6428,86.9
964.5363,105.1
964.7395,284.4
964.8879,452.8
965.1471,84.3
965.2181,653.6
965.6902,61.4
968.103,177.5
968.4813,235.4
968.6861,49.1
968.9823,91.6
969.0621,891.2
969.6282,309.1
969.7496,1244.4
969.9703,388.3
970.2268,510.7
970.2466,111.2
970.3006,435.9
970.4388,160.9
970.7064,246.3
970.8612,55.7
971.8686,298.4
972.2298,92.2
972.4051,871.6
972.6719,216
972.8109,886.1
972.9252,544
973.2967,434.5
973.3328,88.8
974.0079,66.1
974.457,339.7
974.8577,111.8
975.0908,255.8
975.2006,66.9
975.434,50.2
976.012,178.8
976.2258,475.6
976.2879,135.1
976.6576,72
976.9278,345.1
977.0847,464.5
977.5498,57.2
977.5844,1020.7
977.703,319.2
977.92,201.8
977.9711,256
978.1198,86.8
979.0935,65
979.5905,1042
979.623,833.5
979.6639,1273.4
980.3797,235.8
982.0502,911.6
982.1785,74.1
982.4468,141.3
982.7131,590.9
982.9796,21.4
983.1917,112.3
983.6444,95.3
984.443,165.7
984.5309,216.6
984.7977,210
985.5297,1260.8
985.653,358.9
985.8942,144.2
987.1028,87.9
987.1897,222
987.3821,554.6
988.1659,469
988.198,419.5
988.4184,71.1
988.7235,426.5
989.1402,1057.2
990.3449,82.7
990.4307,90.4
990.8183,68.1
990.853,220.9
991.582,746.6
992.6478,339.3
992.9204,771.8
994.6821,58.7
994.8317,1126.6
995.2535,280.4
995.9806,881.2
996.0124,65.9
996.3606,236.1
996.7,1210.1
997.0554,53.6
997.1477,71.8
997.1682,75.9
997.5256,53.4
997.6687,683
997.7539,139.2
997.8178,39.3
997.9245,133.3
997.9783,51.5
998.1749,219.7
998.3102,715.4
998.532,102.4
998.7103,372.7
999.7538,480
999.879,119.4
