SPECTRUM - MS,
711.RAW,
FTMS + p ESI Full ms [50.00-1000.00],
Scan #: 1-40,
RT: 0.01-1.98,
AV: 40,
m/z,Intensity

50.0264,204.1
50.0373,398.2
50.043,455.9
50.0466,18
50.0532,33.9
50.1111,100.9
50.1242,81.3
50.1253,87.1
50.1352,42.8
50.1367,366.6
50.1373,210.2
50.1393,44.6
50.1701,40.3
50.1776,608.3
50.1841,54.5
50.1887,16
50.196,50.9
50.2006,74.8
50.201,195.9
50.2313,64.9
50.2614,310.1
50.2675,67.9
50.2756,122.1
50.2868,54.6
50.2953,73.9
50.3137,49.7
50.3209,259.2
50.3554,356.1
50.3614,194.7
50.3756,213.2
50.3829,62.3
50.3846,128
50.3902,40.4
50.4131,132.9
50.427,262.9
50.4414,148.3
50.4492,80.5
50.4612,186.4
50.4626,47.4
50.4704,314.8
50.4908,33.6
50.5182,32.9
50.5286,658
50.5435,733.9
50.5518,333
50.5519,323
50.5557,82.7
50.5679,334.2
50.5689,313.8
50.5798,46.4
50.5931,108.1
50.6388,647.1
50.6501,58.3
50.6556,696.9
50.6624,58.4
50.6688,144.7
50.671,638.2
50.7135,15.7
50.7297,55.9
50.7407,61.7
50.7479,77.5
50.7511,146.1
50.7729,644.4
50.775,52.1
50.7839,92.5
50.8102,213.8
50.8244,39.2
50.8428,205.3
50.8436,46.1
50.8447,67.5
50.8478,166.3
50.8563,523.1
50.8804,35.6
50.8932,15.9
50.923,46.7
50.9275,148
50.9308,51.4
50.9328,42.7
50.9653,75.6
50.9716,726.4
50.9737,43.1
50.9759,257.1
50.986,44.9
50.9988,614.7
51.0106,108.3
51.0126,260
51.0211,234.5
51.0238,55.3
51.0329,59.4
51.0414,47.3
51.045,136.5
51.0466,146.7
51.057,62.5
51.0828,371.3
51.0918,49.5
51.0966,63.6
51.1011,77.7
51.1023,148.5
51.1055,680.3
51.1073,48.5
51.1085,67.6
51.1326,602.8
51.1551,188.1
51.1652,48.2
51.1942,170.9
51.1987,528.9
51.2001,15.5
51.2314,187.2
51.2625,41.4
51.2632,414.9
51.2788,69.3
51.2797,46.8
51.2932,47.8
51.3041,58.4
51.3058,162.6
51.3114,41.8
51.3128,576
51.3571,52.4
51.3664,246.7
51.3732,317.4
51.3788,50.1
51.3838,59
51.3911,72.3
51.4428,44.2
51.4505,84.5
51.4561,53.1
51.459,221.9
51.4756,579.8
51.4788,55.2
51.4816,145.6
51.4848,588.5
51.4985,47.2
51.5165,115.8
51.5294,48.5
51.5308,47.6
51.5337,18.1
51.5515,151.2
51.5761,164
51.5994,134.7
51.6017,84.9
51.6057,247.6
51.6325,425.7
51.6422,44.9
51.6478,206.1
51.6614,262.4
51.6752,152.4
51.6782,49.3
51.6797,216.8
51.7019,135.7
51.7049,48.6
51.7176,108.7
51.7465,362
51.7511,619.6
51.7609,367.5
51.7803,762.3
51.7924,127.9
51.7932,308.5
51.8148,812.1
51.8194,691.2
51.8283,66.2
51.8461,35.6
51.8561,326.5
51.8617,228.8
51.8674,44.2
51.8733,212.9
51.8846,353.6
51.9065,404.6
51.9166,357.6
51.931,227.4
51.9474,58.6
51.9591,80.6
51.9804,21.8
51.9911,53.8
51.9965,472
52.0008,46.1
52.0058,336.6
52.0087,17.8
52.0092,80.7
52.0246,611
52.0437,333.9
52.0505,568
52.0527,35
52.0794,331
52.0802,83.7
52.0836,47.9
52.0893,681.8
52.1104,35.9
52.1168,98.7
52.137,172.6
52.1404,48
52.1429,80.3
52.1523,173.3
52.18,56.8
52.1916,174.2
52.2071,38.8
52.2532,50
52.2779,43.9
52.283,356.8
52.3209,696.9
52.3301,154.4
52.3372,133.7
52.3446,73.1
52.3462,181.6
52.352,345.7
52.3715,84.7
52.3828,65.3
52.4036,36.2
52.4188,155.2
52.4315,123.6
52.4462,361.5
52.4646,244.1
52.4758,38
52.4807,75.9
52.4837,278.3
52.501,111.2
52.5144,200.6
52.524,46.9
52.528,396.5
52.5388,86.3
52.5544,227.7
52.5606,521.6
52.5624,177.6
52.5631,654.9
52.5845,46.2
52.6103,50.7
52.6109,95.8
52.6184,105.5
52.6707,676.8
52.6792,83.9
52.681,37.3
52.696,46.3
52.6994,151.6
52.7045,595.9
52.7299,815.8
52.7438,18.8
52.7629,462.2
52.777,38.2
52.7904,433.8
52.7915,167.5
52.7922,672.9
52.7929,813.8
52.7932,632.2
52.7936,1125.9
52.7942,805.8
52.7948,170
52.7954,189.4
52.7957,226.9
52.7962,507
52.7969,309.4
52.7972,301.5
52.7977,153.5
52.8017,190.4
52.8125,56.4
52.8136,66.5
52.8205,318.5
52.8446,32.1
52.8647,452.8
52.8948,118.5
52.8981,365.7
52.9017,281.7
52.924,36
52.9315,36
52.9595,59.9
52.9724,110.5
52.9786,116.8
52.9913,94
53.0191,257.6
53.0475,642.9
53.0752,183.1
53.0907,61.9
53.1184,50.3
53.1258,144.4
53.1263,737.5
53.1387,188.1
53.1568,423
53.1771,61.4
53.1836,201.8
53.2012,17.2
53.2183,276.5
53.3056,45.7
53.3093,392.9
53.3139,36.3
53.3196,45.1
53.3262,82.8
53.3394,46.5
53.3398,119
53.3509,41
53.3523,49.3
53.3557,44.2
53.3627,166.4
53.3915,288.9
53.3979,39.3
53.4169,365.6
53.4264,118.5
53.4387,84.2
53.4448,188.4
53.4561,59.8
53.4575,97.9
53.4831,118.7
53.4841,60.5
53.4927,185.7
53.4942,202.9
53.4956,49.8
53.4971,517.2
53.5277,291.3
53.5361,66.1
53.5623,44.7
53.565,644.7
53.5749,45.4
53.581,766.6
53.5898,707.9
53.5952,58.2
53.598,368.1
53.6056,118.6
53.6081,770.6
53.614,39.3
53.6219,51.3
53.6421,15.4
53.6432,121.1
53.6549,162.5
53.6797,45.1
53.7393,410.1
53.7447,744.2
53.7451,50.3
53.7557,301.8
53.8044,476.1
53.8049,84.5
53.8163,38.5
53.8215,48.8
53.8541,47.2
53.8851,35.2
53.8908,43.3
53.9528,58.4
53.9583,350.6
53.9587,37.6
53.9648,142.8
53.9702,17.2
53.9795,413.3
53.9821,19.6
53.9912,119.3
54.0064,254.8
54.0143,88
54.0272,309
54.0459,40
54.0562,42.2
54.059,685
54.0778,177.4
54.0861,196.7
54.0927,287.7
54.0964,242.3
54.1029,410.9
54.1035,69.4
54.1051,64.1
54.1061,330.5
54.1775,49.7
54.1791,793.3
54.2234,117.2
54.2442,507.7
54.2456,508.7
54.2715,118.4
54.272,73
54.2807,41
54.2811,78.3
54.3164,199.5
54.3196,331.4
54.3467,201.7
54.3562,149.8
54.3609,742.1
54.3703,41.4
54.3751,52
54.3853,16.4
54.3886,39.7
54.3984,146.9
54.4066,790.3
54.4077,87.1
54.4164,164.4
54.4244,326.7
54.4388,525.6
54.4447,108.9
54.4771,271.4
54.5136,448.5
54.527,37.2
54.5366,427.3
54.5368,413.1
54.5377,42.1
54.5401,98.7
54.5408,79.7
54.5527,300.7
54.5598,386.7
54.5626,333.2
54.5702,277.9
54.571,85.5
54.584,47.6
54.5949,113.5
54.5959,48.3
54.6012,18
54.6027,181.4
54.613,57.5
54.6208,475
54.6254,609.2
54.6626,323.4
54.6717,116.6
54.6798,88.8
54.6947,667.5
54.6983,76.7
54.7018,442.8
54.7034,58.4
54.7263,329.8
54.7321,590.3
54.7348,41.2
54.7387,67
54.7394,637.1
54.7484,417.9
54.7575,16.4
54.779,94.9
54.7913,560.6
54.8041,83.2
54.8064,330.9
54.8138,258.9
54.8337,59.3
54.8588,43.1
54.9197,122.1
54.9402,370.5
54.9412,101.3
54.9647,114.3
54.9951,130.9
55.0034,144.2
55.0395,297.3
55.0596,533.6
55.0724,255.7
55.0806,620.5
55.0952,51.9
55.0984,88.4
55.104,181.2
55.1148,703.8
55.1566,86.4
55.1634,39.6
55.1771,462
55.1851,313.7
55.2387,182.9
55.2397,78.4
55.2435,249.5
55.2682,546.3
55.2708,340.4
55.2871,166.6
55.2882,46.4
55.3033,158.4
55.3165,216.4
55.335,417.9
55.3363,101.8
55.3479,44.7
55.365,100.4
55.372,131.3
55.4027,273.9
55.4033,70
55.4279,72.1
55.4398,178.1
55.4497,534.3
55.4602,119
55.4699,83.9
55.4727,489.2
55.4761,398.6
55.4867,69.6
55.506,142.4
55.5068,67.1
55.5119,413.7
55.5153,80.6
55.5285,458.6
55.5336,51.8
55.5387,157.8
55.5398,249.5
55.555,48.6
55.5568,613.4
55.5638,244.4
55.5694,847.4
55.583,22.3
55.5846,661.8
55.6111,60.2
55.612,343.1
55.614,106.5
55.6156,72.4
55.6187,53
55.6221,404.7
55.6484,337.7
55.6498,142.3
55.6871,332.5
55.6951,65.4
55.7117,19.7
55.7217,339.5
55.7324,146.8
55.7418,161.5
55.7594,196.9
55.7663,41
55.7794,169.1
55.7863,703.1
55.8101,152
55.8451,50.6
55.8505,45.2
55.8532,37.6
55.8678,290.9
55.8756,144.9
55.8943,65.2
55.9192,327.9
55.9607,354.2
55.9678,364.6
55.9709,60
55.9749,375.9
55.9939,55.9
56.0004,417.4
56.0178,374.2
56.0305,464.6
56.0356,610.3
56.0485,132.4
56.0492,484.9
56.0494,351.3
56.0698,43.5
56.0739,686.5
56.0766,101.3
56.1175,44
56.1256,514.6
56.1275,717.3
56.1401,17.6
56.1407,282.5
56.1468,71.6
56.1643,140.9
56.1721,61
56.1944,83.7
56.2313,176.6
56.2463,103.3
56.2515,67.3
56.2876,19.8
56.3076,445.9
56.3085,351.4
56.3118,98.7
56.3221,423.1
56.3234,168
56.3319,292.3
56.3396,43.7
56.3612,99.5
56.3709,188.3
56.4591,17
56.4664,122.8
56.4676,341.4
56.4725,87.8
56.4799,717
56.4857,115.5
56.4887,335.3
56.4967,52.4
56.5055,393.1
56.509,544.6
56.5179,18.8
56.5183,160.6
56.5213,102.9
56.5428,52.3
56.5729,338.2
56.597,54.8
56.598,84.4
56.6003,180.6
56.6234,63.9
56.6267,620.9
56.629,276.5
56.639,426.4
56.6495,51.7
56.6771,200
56.6918,662.8
56.7047,165
56.7073,57.8
56.7151,56.9
56.7169,863.5
56.7239,103.2
56.7481,64.5
56.7703,48.3
56.7767,86
56.7911,201.8
56.7965,447.9
56.8157,94.4
56.8207,84.9
56.8212,59.1
56.8435,370.2
56.8523,35.8
56.858,44.9
56.8653,50.3
56.8786,80.5
56.892,51.2
56.8951,90
56.908,55.2
56.9318,161.8
56.944,578.4
56.9652,58
56.9828,39.1
56.9887,300.5
57.0174,46.1
57.0308,162.2
57.0344,93.6
57.0387,87.8
57.0405,186.9
57.044,43.6
57.0475,65.2
57.0482,157.8
57.0532,82.6
57.0553,133.8
57.0557,263.1
57.0589,91.9
57.0636,284.6
57.0882,72.8
57.0894,504.7
57.093,641.9
57.1162,32.2
57.1263,61.3
57.1389,53.9
57.1399,110.3
57.1535,50.9
57.1544,20.9
57.1664,81.5
57.2039,83.5
57.2194,463.1
57.2226,70.4
57.2436,57.2
57.2462,327.3
57.2687,67.8
57.303,122.6
57.3112,58.1
57.3203,46.1
57.3659,220.5
57.3942,161.4
57.3977,180.5
57.4008,138.7
57.4019,17.4
57.4175,51.2
57.4179,137.5
57.4229,768.3
57.4338,40.1
57.4484,68.7
57.4578,92.2
57.4676,270.7
57.4752,226.2
57.4792,92.5
57.4879,152.1
57.4889,17.4
57.4979,46.7
57.5027,64.2
57.5226,31.1
57.5255,276.1
57.5464,395
57.5666,421.5
57.6014,40.8
57.6082,60.4
57.6162,49.9
57.6181,18.4
57.622,35.6
57.6315,53.6
57.6342,78
57.6377,68.9
57.6445,61.7
57.668,624.5
57.6786,90.9
57.7026,41.4
57.7049,64.8
57.7051,69.3
57.7053,42.5
57.7092,189.9
57.7185,389.2
57.7364,806
57.7431,256.1
57.7463,339.5
57.7601,379.9
57.7772,42.3
57.7852,20.5
57.7906,17.6
57.8016,79.9
57.8047,201.4
57.8244,323.4
57.8348,535.8
57.8465,146.4
57.8489,51.8
57.8552,555.7
57.8559,49.6
57.8582,235.1
57.8637,76.5
57.8665,112.7
57.8807,524
57.8956,500.8
57.9347,40.6
57.94,106.3
57.9704,246.5
57.9745,205.6
57.976,16.9
57.9812,55.6
57.9829,163
58.0034,31.3
58.0035,31.3
58.0322,54.9
58.0625,42.7
58.0911,61.3
58.0927,61
58.0969,41.4
58.1013,42.1
58.1132,410.3
58.1427,773.3
58.1527,63.4
58.1541,20.1
58.1562,95.5
58.1613,46.4
58.168,123.5
58.192,85.4
58.193,465.5
58.2033,61.2
58.2289,528.6
58.2314,43.1
58.2427,784.1
58.2708,193.2
58.2938,163.8
58.3168,68
58.3342,658.9
58.3425,63.4
58.3437,57.2
58.3485,55.2
58.3687,280.5
58.3821,111.1
58.3914,533.7
58.3936,46.9
58.3969,342.7
58.4029,82.4
58.4399,639.6
58.4418,62.3
58.4439,295.2
58.4551,54.9
58.4756,667.5
58.4776,152.5
58.4904,55.9
58.5029,37.9
58.5292,717.4
58.5329,306.1
58.542,44.3
58.5525,226.7
58.5582,18.8
58.5744,248.7
58.5896,65.2
58.5931,412.7
58.5966,328.3
58.6029,139.7
58.6095,475
58.6118,137.6
58.6161,736.4
58.6177,40.1
58.6194,77.5
58.6219,803.2
58.6333,308.2
58.6338,391.5
58.6353,82.7
58.6566,110.8
58.6641,45.6
58.6655,88.7
58.6742,76.6
58.6756,16.9
58.6831,218.2
58.7052,248.4
58.7064,94.1
58.7156,129.8
58.7326,37.6
58.7463,36.4
58.749,48.7
58.7597,40.6
58.772,19.6
58.7771,236.7
58.787,467.8
58.7883,49.3
58.8246,395
58.8488,16
58.8749,44
58.911,46.1
58.9172,729.5
58.9195,85.7
58.9236,64.7
58.9329,101
58.9336,69
58.9437,326.5
58.9492,543.7
58.979,647.8
58.9803,17.3
58.982,340.1
58.9841,17
58.9979,143.3
59.0091,473.7
59.0258,87.4
59.0325,52.8
59.0378,120.9
59.0434,17
59.0511,84.5
59.0603,53.9
59.0762,72.8
59.0796,54.1
59.0818,67.6
59.0902,331.4
59.0925,273.5
59.1001,303.2
59.1016,56.6
59.13,720.8
59.136,330
59.1394,61
59.1473,187.4
59.18,300.2
59.1873,104.4
59.1883,327
59.2088,84.2
59.2213,514.2
59.2311,109.1
59.2522,17.2
59.2527,158.1
59.254,37.8
59.2583,44.3
59.2723,15.6
59.2776,291.6
59.2847,94.3
59.2942,81.9
59.2998,81.2
59.3055,165.8
59.3124,417.6
59.357,54.9
59.3714,261.6
59.3725,38
59.374,121.1
59.3782,339.6
59.4068,586.3
59.4104,82
59.4109,193.4
59.417,647.3
59.42,360
59.4252,107.4
59.4273,52
59.4652,19.1
59.4674,75.1
59.5137,472.3
59.5227,91.6
59.5235,66.6
59.5294,86.9
59.5395,263.6
59.5473,205.3
59.5569,128.7
59.5932,708.9
59.6137,100.2
59.6208,206.3
59.6268,446.3
59.6316,68.5
59.6403,49.4
59.6415,324
59.6537,164.2
59.6559,57.4
59.6751,19.5
59.6874,376.6
59.7014,297.1
59.7027,104.2
59.7135,343
59.7184,54
59.7367,50.9
59.7462,283.4
59.7572,68.9
59.7652,48.1
59.7958,414
59.8149,197.5
59.8191,39.8
59.8276,575
59.8368,188.7
59.8399,100.2
59.8416,16
59.8441,117.7
59.8639,347.2
59.8731,78.7
59.8907,295.8
59.9011,35.7
59.9238,392.1
59.9289,121.2
59.9408,88.3
59.9502,87
59.9608,429.2
59.97,17
60.0166,718
60.0335,41.4
60.0396,141
60.0441,97.9
60.0548,44.1
60.059,70.5
60.1028,48.1
60.1089,133.7
60.1098,143.9
60.1367,143.3
60.145,637.2
60.1454,313.5
60.1585,17.3
60.1621,205.5
60.1653,256.4
60.1709,43.8
60.2016,686.5
60.2138,754.5
60.2143,46
60.216,60.3
60.2212,16.5
60.2312,210
60.2362,132.3
60.2546,368.4
60.279,73.2
60.2926,108.8
60.357,64.4
60.3686,298.5
60.3784,15.7
60.3836,856.4
60.3941,110.6
60.4038,43.5
60.4085,289.1
60.4146,71.1
60.4434,88.8
60.4498,136.9
60.4516,46.2
60.4522,64
60.4737,200.7
60.4826,16.9
60.4981,49.7
60.5064,705.1
60.5201,330.7
60.5278,66.4
60.5346,117.3
60.5412,818.7
60.5479,85.7
60.5998,365.5
60.6222,39.7
60.6426,75.3
60.6429,70.7
60.6455,17.6
60.6531,61.5
60.6832,63.7
60.6973,260.1
60.7366,166.4
60.7375,40
60.759,44.8
60.7756,320.1
60.784,63.8
60.787,493.5
60.8076,134.7
60.8157,114.3
60.8273,234.4
60.8323,105.1
60.8552,90.9
60.8565,85.3
60.8667,333
60.8726,649.7
60.8798,89.1
60.8814,39.1
60.8917,430.5
60.9045,370.6
60.9214,793.4
60.9444,173.5
60.9682,63.6
60.9894,74.3
61.0013,198.7
61.0398,41.4
61.0504,80.4
61.0522,66
61.0575,475.6
61.0581,42.1
61.0731,43.6
61.0738,59.2
61.0833,98.3
61.088,50
61.1216,17.9
61.1421,488.3
61.1476,426.6
61.1512,23.4
61.1544,91.5
61.1578,123
61.204,130.4
61.2167,73.7
61.2181,15.8
61.2293,158.1
61.2327,18.8
61.2373,48
61.2397,528.4
61.242,89.3
61.2513,20.5
61.2527,54.5
61.2544,88.6
61.2747,494.6
61.2952,150.6
61.3068,133.8
61.3088,198.2
61.3155,19.7
61.3204,17
61.3327,162
61.3335,83.2
61.3553,467
61.372,839.5
61.3841,156.8
61.3861,36
61.3918,15.8
61.3925,889.7
61.4036,270.3
61.4115,698.4
61.4151,99.9
61.4615,42.5
61.4654,73.9
61.4796,315.7
61.4859,150
61.527,410.6
61.5579,646
61.5643,572.2
61.5751,101.6
61.5783,51
61.5967,54.9
61.5992,81.3
61.6017,19.9
61.6105,48
61.6134,50.7
61.6293,834.5
61.6369,58.5
61.6499,40.7
61.6543,129.6
61.6628,342.3
61.6648,42.8
61.6898,158.7
61.6954,318.2
61.7415,14.5
61.7422,73.1
61.7491,867.2
61.7528,47.1
61.7549,923.9
61.7584,70.9
61.7623,17.6
61.7718,256
61.7945,70.5
61.7994,19.7
61.818,71.7
61.8744,88.7
61.8916,150.9
61.8986,265.5
61.9158,163.8
61.9188,160.9
61.9764,59.1
61.987,128.2
62.001,75.6
62.0016,131.2
62.0028,53.6
62.0432,143.9
62.0455,56.7
62.0523,18.4
62.0534,113.8
62.0676,345.5
62.1049,57
62.1418,184.3
62.1449,336.9
62.1672,71.1
62.1843,17.6
62.2035,64.2
62.2062,770.2
62.2216,185.2
62.2508,59
62.2671,50.1
62.3117,164.9
62.322,55.6
62.3392,360
62.3484,117
62.3515,40.9
62.3846,352.8
62.4087,53.6
62.4119,496.9
62.4134,115.9
62.4185,238.7
62.447,16.9
62.4521,86.9
62.4574,40.8
62.4698,44.9
62.4737,233.4
62.4824,179.4
62.4869,38.1
62.4901,258.6
62.5062,455
62.5085,332.6
62.5126,197.9
62.5156,108.4
62.5178,245.7
62.5263,652.1
62.5527,412.1
62.5815,258.8
62.585,372.2
62.5909,216.1
62.6087,87
62.6092,17
62.6186,49.6
62.627,85.1
62.6308,380.3
62.6425,94.9
62.6504,67.5
62.6622,280.5
62.6732,47
62.675,187.6
62.6953,144.8
62.6995,385.4
62.7156,111.2
62.7359,88.6
62.7883,148.8
62.8043,66.8
62.8073,192.8
62.8081,52.8
62.8208,353.2
62.871,102.7
62.8761,70.5
62.8827,635.2
62.888,712.6
62.8958,50.8
62.9051,119.8
62.9092,452.1
62.9118,54.8
62.9136,219.4
62.9163,131.3
62.9317,60.7
62.9366,60.6
62.9395,592.2
62.9561,21.5
62.9662,64.3
62.9677,41.3
62.9695,184.9
62.9847,190.8
63.0053,18.5
63.022,18.9
63.0325,104.5
63.0544,99.8
63.0805,17.6
63.0905,250.2
63.1001,50
63.1053,93.2
63.1211,67.8
63.1392,87.6
63.1439,81.1
63.1466,46.4
63.1468,44.3
63.1574,65.9
63.1584,35.8
63.1674,493.2
63.1881,272.6
63.1891,17.6
63.2036,18.8
63.2049,88.7
63.2191,59.4
63.2494,123.1
63.2689,57.8
63.2732,181.2
63.275,112.9
63.2828,450.2
63.2975,50.3
63.3047,39.4
63.3202,65.5
63.332,315.3
63.3498,94.4
63.3526,79.3
63.3565,64.7
63.38,60.4
63.4053,45.1
63.4061,16.9
63.416,116.1
63.4208,72.2
63.446,98
63.4604,584.4
63.4646,77
63.4752,65.4
63.4792,214.9
63.4841,430.1
63.4983,85.6
63.5159,269.5
63.5169,58.8
63.5196,437.6
63.53,66
63.5378,64.3
63.5449,46.9
63.5478,111.8
63.5735,114.2
63.6077,41.7
63.6089,251.8
63.626,48.6
63.6274,55.9
63.6355,108.7
63.6484,67.6
63.7035,41.1
63.7053,181.5
63.7321,656.6
63.7346,440.2
63.7417,288.8
63.7454,52.4
63.7464,461.8
63.7471,102
63.7667,70.7
63.7681,1077.4
63.7918,20
63.7974,792.9
63.8001,54
63.8207,63.3
63.8212,42.7
63.8257,17.5
63.8363,41.3
63.8595,259.1
63.8841,18.9
63.9035,109.5
63.9113,121.1
63.9218,613.1
63.9386,392.1
63.9405,91
63.9435,100.1
63.9659,359.1
63.9736,83.3
63.9766,540.4
63.9966,79.3
64.0094,842.2
64.0314,139.8
64.0603,300.8
64.061,599.8
64.0782,80
64.0822,705.1
64.0918,39.7
64.0949,17.9
64.1046,109.1
64.1207,68.5
64.1345,393.2
64.1393,101.3
64.1422,435.2
64.1535,63.4
64.1541,34
64.1644,769.1
64.1725,55.2
64.1758,49.9
64.1773,756.8
64.1788,39.4
64.1883,102
64.1903,53.2
64.195,465.1
64.2162,59.7
64.2195,116.8
64.2265,600.6
64.2288,514.3
64.2342,54.1
64.2448,180.9
64.2882,108.5
64.3181,133.2
64.3199,157.6
64.3266,158.1
64.3326,54.8
64.3503,230.5
64.3538,592.8
64.3631,16.1
64.3781,63.8
64.3843,79.4
64.3941,176.2
64.415,90.1
64.4162,89.9
64.4197,595
64.4317,68.7
64.4409,342.4
64.449,266.1
64.4694,41.1
64.484,490.1
64.4926,468
64.497,54.7
64.5049,80.3
64.5107,128
64.5321,723.1
64.5455,138.8
64.5495,587.2
64.5597,106.8
64.5618,310.7
64.5759,184.1
64.5802,645.1
64.5844,447.3
64.5977,749.5
64.6095,42.3
64.6644,704
64.679,18.1
64.6839,41.1
64.7114,400.2
64.7135,300.8
64.7202,110
64.7321,192.9
64.7329,212.5
64.7347,55.1
64.7496,228.4
64.7527,68.6
64.7781,383.9
64.8105,65.4
64.8352,40.4
64.8484,62.3
64.8754,56.2
64.8768,334
64.8794,106.8
64.921,102.3
64.9375,75.6
64.9511,60.2
64.9524,599.9
64.9713,386.4
64.997,34.4
65.0086,296.9
65.0207,47.8
65.0331,17.4
65.0355,380.4
65.0581,303
65.0618,122.7
65.0739,419.3
65.0866,126.6
65.1068,71.8
65.1439,59.2
65.1513,545
65.1613,68.9
65.1849,51.2
65.2066,84.8
65.2134,112.5
65.2205,39.7
65.2552,205.5
65.2659,149
65.2701,51
65.2844,64.9
65.3017,40
65.306,459
65.3163,76.5
65.3176,613.8
65.3206,104.6
65.3271,149.8
65.3369,45.3
65.3385,39
65.3502,212.4
65.3575,114.6
65.3637,413
65.3642,384.8
65.3831,324.6
65.3938,57.2
65.4023,811.7
65.4098,84.4
65.4318,50.8
65.4433,366.8
65.4769,46.3
65.4826,744
65.4854,70.1
65.5016,65.7
65.5481,60.6
65.5614,51.8
65.5747,343
65.5816,45.6
65.5888,48.5
65.5904,128.8
65.6103,755.1
65.6173,37.9
65.6271,303.3
65.6342,46.1
65.6466,125.1
65.6573,368.3
65.6612,402.6
65.6635,406
65.6666,82.3
65.6818,110.6
65.6957,160.9
65.6982,67.3
65.7015,58.2
65.7073,89.1
65.7554,72
65.7701,53.6
65.7775,329.6
65.7927,113
65.7962,165.3
65.8136,204.8
65.8333,160.2
65.8482,64.2
65.8655,126.3
65.8817,61.6
65.8835,338.5
65.8902,63.5
65.9013,330.6
65.9061,275.9
65.9226,66.1
65.9515,411.4
65.9622,158.5
65.9703,76.2
65.9751,37.4
65.9868,18.4
66.0366,41.3
66.045,44.2
66.0468,39.2
66.0479,170.4
66.082,64.4
66.0883,108.7
66.1105,766.9
66.1305,231.4
66.1439,371.1
66.1691,412.9
66.1857,406.9
66.1921,64.2
66.2069,292.9
66.2222,236.2
66.2267,72.5
66.2606,52.1
66.2655,595.9
66.2685,42.5
66.2705,39.9
66.2734,554.1
66.3011,748.6
66.3159,59.8
66.3165,158.1
66.3182,44.1
66.3452,36.7
66.3517,461.7
66.3713,834.3
66.3763,395.8
66.383,92.5
66.3879,167.1
66.3953,502.6
66.3971,435.8
66.4011,16.1
66.4052,81.1
66.4158,48
66.4169,419.9
66.422,686
66.4232,81.8
66.4254,55.5
66.4279,18.4
66.4393,499.2
66.4517,318.8
66.4672,189.5
66.4679,187
66.4693,63.4
66.4694,62.9
66.4792,678.3
66.485,17.5
66.4951,278.9
66.5185,104.1
66.541,40.9
66.5584,33
66.5881,201.2
66.5898,542.6
66.5931,398.6
66.6025,151.3
66.6131,60.9
66.6206,138.3
66.6221,533.4
66.6444,17.6
66.6664,74.1
66.6713,186.4
66.6795,82
66.6971,472.2
66.7277,43.5
66.7663,49.8
66.7725,47.8
66.796,78
66.8094,101.2
66.8427,467
66.8519,182.6
66.8537,299.8
66.8735,386.8
66.8957,330.2
66.9393,61.7
66.9415,613.3
66.9437,16.3
66.9462,419.2
66.9487,327.6
66.9581,425.8
66.9616,210.9
66.9806,745.6
66.9827,282.3
66.9929,141.5
67.0002,102.3
67.0117,135.7
67.0234,294.6
67.0472,86.4
67.0477,17.4
67.0488,858.1
67.0539,109
67.0595,165.1
67.0957,650.8
67.0987,166
67.1105,41.1
67.1249,50.6
67.1569,215.4
67.171,66.4
67.1715,585.9
67.1878,66.8
67.1888,253.5
67.1923,245.3
67.1997,20.6
67.2141,55.2
67.2234,562.7
67.2355,248.4
67.2392,89
67.2417,394.6
67.2549,127.6
67.2557,46.2
67.2659,71.9
67.2665,80.4
67.2744,91.1
67.2805,80.6
67.3045,63.7
67.3109,426.9
67.3311,234.5
67.336,60.2
67.3445,188.2
67.3455,120.8
67.3526,124.9
67.3607,64.8
67.3846,177.2
67.4453,34.2
67.4581,74.3
67.475,39.3
67.4775,354.3
67.4921,55.8
67.5016,62.9
67.508,36.6
67.523,17.7
67.5264,16.3
67.5359,134.3
67.539,87.4
67.5551,126.2
67.5683,49.8
67.5703,503.3
67.5837,64.2
67.5858,190.3
67.6026,39.7
67.6035,16.4
67.6171,36.4
67.6178,145.4
67.6252,234.1
67.646,838
67.6525,169.7
67.6689,156.6
67.6731,133.9
67.6766,19.3
67.6775,111.3
67.6835,67
67.6861,55.8
67.7214,141.8
67.7286,303.9
67.7334,492.4
67.7481,156.1
67.7673,59.3
67.8103,84.1
67.8142,17.6
67.8294,260.5
67.8311,56.3
67.8404,434.3
67.8466,41.2
67.848,373.9
67.8531,159.9
67.8766,63.5
67.9135,37.3
67.937,50.7
67.9425,168.8
68.0032,116.7
68.0131,42.3
68.0191,75
68.0446,55.2
68.0578,623.6
68.0626,333.9
68.077,376.7
68.0958,167.1
68.0976,51.3
68.1118,152.1
68.1149,21
68.1319,366.4
68.1368,553.6
68.15,34.5
68.1511,38.5
68.1534,61.5
68.1693,156.5
68.1715,41.1
68.1955,85
68.2184,36.3
68.2293,161.3
68.2317,104.2
68.2373,143.7
68.2641,213.1
68.2782,83.6
68.3092,81.1
68.3154,122.1
68.3199,71
68.3335,94.6
68.3345,88.7
68.3508,372.5
68.3515,677.1
68.3609,394.4
68.3673,119.8
68.3764,61.2
68.3852,652.1
68.4536,617.1
68.4561,427.7
68.4631,112.2
68.4697,104.5
68.4812,50.8
68.4943,529.8
68.5123,81.6
68.5401,211.8
68.565,45.2
68.5701,64.6
68.5786,42.1
68.6096,80
68.6246,42.2
68.6253,937.6
68.645,450
68.6803,278.9
68.6997,55.8
68.725,34.4
68.7284,350.7
68.734,88
68.7374,45.9
68.767,41.4
68.777,202.7
68.8242,408.8
68.8415,979
68.8533,182
68.8641,45.8
68.8673,56.2
68.8889,90.3
68.9355,38.9
68.9406,82.5
68.9557,18.9
68.96,812.7
68.9683,84.5
68.992,341
69.0037,87.6
69.0138,87.9
69.0574,598.5
69.0594,40.6
69.0613,22.1
69.0716,142.3
69.1018,17.8
69.1197,437.9
69.208,76.4
69.2114,19
69.2232,65.3
69.2517,55
69.274,21.5
69.2755,39.3
69.3105,134.8
69.3234,69.6
69.333,406.6
69.3366,354.4
69.3397,18.2
69.3429,19
69.3748,728.5
69.4048,96.4
69.4088,253.4
69.4151,155.8
69.4221,57.4
69.4381,65.7
69.4414,43.4
69.4464,43.2
69.4469,84.1
69.451,217.8
69.4559,54.8
69.4569,858.6
69.4617,102.3
69.4777,40.4
69.5091,202.1
69.5122,240.2
69.5173,48.1
69.5271,196.1
69.5281,46.2
69.532,389.3
69.5337,352.4
69.5464,439.6
69.5479,372.6
69.5567,45.2
69.5581,385.5
69.5692,96.8
69.5823,44.3
69.5884,17.8
69.5906,734.5
69.5932,132.1
69.5983,139.5
69.6002,841.9
69.605,716.8
69.6153,111.3
69.6554,168.2
69.6605,51.5
69.6806,411.9
69.6975,219.7
69.7077,605.9
69.7259,365.2
69.7292,52.7
69.7431,34.4
69.7591,122.1
69.8104,168.6
69.8229,61.3
69.8468,90.8
69.8482,694.3
69.8595,690.2
69.8628,693.1
69.8995,340.1
69.9065,72.4
69.9234,39.2
69.94,217.3
69.9653,394.2
70.0007,41.5
70.0106,32.2
70.0258,34.7
70.0318,50.7
70.043,1075.3
70.05,259.8
70.0649,1278.7
70.0804,214.1
70.1033,40.5
70.1209,247.4
70.1231,83.4
70.1381,135.6
70.1399,50.6
70.1709,18.3
70.181,39.1
70.1857,142
70.1867,307.7
70.1907,279
70.192,483.6
70.2086,19.2
70.2099,50.3
70.2346,19
70.2718,67.7
70.2741,414.6
70.2761,49.9
70.3116,532
70.3262,324.8
70.3485,45
70.3701,469.6
70.3716,62.7
70.3827,62.6
70.3953,260.7
70.4015,159.3
70.4066,153.9
70.407,163.1
70.4153,181.3
70.4217,159.6
70.4432,341.6
70.4447,43.4
70.4718,46.5
70.4868,703
70.489,538
70.5059,50.7
70.5105,102.7
70.5188,87.7
70.5336,56.6
70.606,172.8
70.6413,171.3
70.652,119.3
70.6542,178.7
70.6663,139.5
70.6843,49.6
70.6939,514.8
70.7224,40.1
70.7279,69.2
70.7429,19.9
70.7471,132.9
70.7678,484.9
70.7715,185.8
70.7769,88.9
70.788,124.4
70.8662,109
70.8711,179.3
70.8767,558.2
70.9273,465.2
70.9365,19.8
70.9523,395
70.955,545
70.9675,37.8
70.9878,444.9
70.9975,711.5
71.0083,226.4
71.0189,444
71.0354,80.7
71.0462,167.2
71.0706,256.5
71.1057,372.4
71.1108,292.4
71.1134,43.4
71.1339,153.4
71.14,468.3
71.1903,86.3
71.2045,67.7
71.2152,562.1
71.2374,151.8
71.2571,90.7
71.2972,952
71.3187,356
71.323,18.6
71.3403,68
71.3942,16.5
71.402,210.9
71.4117,52.3
71.413,43.3
71.4424,50.3
71.4443,480.1
71.4534,74.7
71.4563,172.7
71.474,535.3
71.4812,216.7
71.5206,44.6
71.5233,104.3
71.5266,17.2
71.5301,400.4
71.5345,60.3
71.5437,369.1
71.5467,164.9
71.5529,17.4
71.5675,56.2
71.5772,117.5
71.5961,149.1
71.6131,35.7
71.6214,181.4
71.6238,425.2
71.6242,56.5
71.6304,19.9
71.6668,17.7
71.6674,44
71.668,54.7
71.677,15.5
71.6855,146.7
71.7136,40.1
71.7179,74.1
71.7223,118
71.7556,100
71.758,488.6
71.7733,37.6
71.7962,73.6
71.799,15
71.8068,71.5
71.8145,191.2
71.8238,782.5
71.835,15.8
71.8472,47.4
71.8849,93.1
71.9041,724.4
71.9255,68.9
71.9356,49.6
71.9366,129
71.9445,53.4
71.9607,345
71.9814,521.6
71.9888,342.6
71.9935,107.2
72.029,68.2
72.0309,172.7
72.0421,114.3
72.0805,370
72.0874,344.9
72.0888,59.1
72.0931,46.6
72.1076,116.6
72.1097,18.3
72.1171,47
72.1333,88.1
72.1496,17.1
72.1515,890.2
72.1639,57.6
72.1747,305.1
72.1838,16.9
72.1921,41.5
72.1944,52.9
72.1963,85.3
72.2154,913.2
72.2168,505.4
72.2181,21.7
72.2192,1039.9
72.22,373.7
72.2208,211.8
72.2224,340.5
72.223,154.5
72.2241,1191.7
72.226,3884.6
72.2266,2251.7
72.2272,2710.8
72.2274,2646.6
72.2289,2101.9
72.2297,1960.6
72.2304,2355.6
72.2314,2011.4
72.2318,2625.9
72.2326,2808.7
72.233,2644.8
72.234,3259
72.2351,2434.2
72.2367,2619.4
72.2379,1287.3
72.2384,1516.2
72.2397,1413.2
72.2403,239.1
72.2413,268.7
72.2423,674.3
72.2434,949.9
72.2445,691.9
72.251,218.9
72.2554,40.7
72.2597,34.4
72.3064,1007.6
72.3076,50.9
72.3089,39.3
72.3234,416.8
72.3445,844.1
72.3798,18.6
72.3881,41.4
72.4009,85.6
72.4196,159.8
72.4272,321.1
72.4346,625.8
72.4547,40.7
72.4662,78.9
72.4727,33.8
72.4825,39.3
72.4914,162
72.5506,332.8
72.5556,103.5
72.5704,816.9
72.5714,351.4
72.6065,383.3
72.6102,73.7
72.6279,42.3
72.6474,17.7
72.661,325
72.6908,701
72.7207,326.2
72.7222,686.3
72.7372,44.9
72.7517,254.1
72.7555,51.1
72.7831,98.7
72.791,39.4
72.7961,18
72.7966,141.2
72.8151,145.3
72.821,35.6
72.8267,728.5
72.8797,55.8
72.8974,342
72.898,223.3
72.9001,134.4
72.9228,54.2
72.9242,336.9
72.9587,368.3
72.9599,637.9
72.9775,18.2
72.9812,278.3
72.9883,59.6
72.9893,103.9
73.0084,55
73.0181,130.4
73.0246,39.2
73.0304,289.5
73.0628,20.7
73.0689,45.7
73.0888,104.3
73.1072,19.7
73.1333,340.9
73.1442,232
73.1518,83.1
73.1528,43.7
73.1649,126.2
73.1721,719.5
73.1974,16.3
73.1999,466.9
73.2332,150.3
73.2392,160.1
73.2395,236.5
73.2397,190.6
73.2508,48.1
73.257,343.7
73.2673,774.9
73.2993,49
73.3046,32.2
73.322,349.8
73.3333,798.3
73.3618,326.7
73.3697,235.3
73.3707,53.1
73.3801,52.3
73.3989,66
73.419,54.4
73.432,158.5
73.4569,226.9
73.4666,117.9
73.4769,86.8
73.4815,43.9
73.5031,53.6
73.5073,176.4
73.5133,377.5
73.521,693.4
73.5303,557.1
73.5312,65.7
73.5486,48.8
73.5966,604.6
73.6169,50.3
73.6593,241.1
73.6646,72
73.6686,39.6
73.6776,58.6
73.7013,44.4
73.7058,448.8
73.7083,79.2
73.7104,698.1
73.7134,76.8
73.7138,78.7
73.7225,90
73.75,81.4
73.7648,103.8
73.7778,728
73.7941,62.6
73.8064,16.4
73.8142,65.8
73.833,155.6
73.8426,45.3
73.8764,49.2
73.8871,93.2
73.9146,318.9
73.925,95.7
73.9391,148.4
73.9497,272.7
73.9598,114.3
73.9606,446.6
73.9622,88.1
73.9714,475.7
74.0219,820.6
74.0333,291.8
74.0441,37
74.0524,31.5
74.0598,7380.8
74.072,49.1
74.108,164.4
74.1161,36.7
74.155,41.9
74.1725,51.3
74.1837,271.4
74.1864,48.9
74.188,262.5
74.2229,35.9
74.2309,58.3
74.2367,46.3
74.2588,335.7
74.2742,188.3
74.2952,94.6
74.299,19
74.2996,43.2
74.3044,400.5
74.305,851.5
74.3145,703.5
74.3299,57.6
74.3373,15.5
74.3486,120
74.3628,70.9
74.3678,106.7
74.3805,194.7
74.4309,112.4
74.4436,69.8
74.4576,126.9
74.476,385.2
74.4839,347.9
74.5011,284.2
74.5061,51.3
74.5362,45.2
74.5562,35.4
74.5709,172.6
74.5916,140.5
74.5957,238
74.6013,335.8
74.6061,76.6
74.6095,17.8
74.6271,805.2
74.635,405.4
74.6435,38.4
74.6447,680.3
74.6838,98.6
74.6977,46.5
74.7001,165.9
74.7078,723.1
74.7283,343.6
74.8029,434.6
74.8097,210
74.8257,157.9
74.8468,591.2
74.8535,83
74.8706,96.4
74.8874,18.8
74.9254,897.1
74.9397,312.4
74.9456,308.3
74.9708,455.2
74.9798,56.4
74.9878,157.9
75.0029,499.4
75.0107,70.4
75.0157,41.4
75.0179,646
75.019,372.8
75.0321,82.8
75.0333,43.8
75.0387,64.1
75.0635,83
75.0709,360.4
75.0754,49.4
75.0793,397.6
75.0891,696.6
75.1253,39.2
75.1618,178.7
75.183,70.3
75.2072,432.1
75.2141,43.8
75.2158,80.6
75.2177,156.6
75.2551,566.1
75.2598,35.6
75.2849,378.1
75.2861,50.4
75.2914,115.8
75.3192,146.8
75.3278,43.7
75.3575,19.6
75.3711,104.2
75.3735,160.9
75.3828,249.5
75.3967,843.1
75.4013,254.6
75.4098,36
75.411,17.8
75.4294,46.8
75.449,682.7
75.4673,43.4
75.4714,476.4
75.4899,233.7
75.505,272.4
75.5108,43.9
75.5211,94.5
75.5257,66
75.5388,56.5
75.5494,161.4
75.5708,132.4
75.5764,358.4
75.5889,1214.9
75.5909,201.6
75.5943,415.9
75.6028,54.1
75.6038,102.4
75.6255,47.5
75.6315,52.2
75.6349,351.3
75.6425,350.1
75.6466,16.8
75.6468,17.2
75.652,50.8
75.6834,137.8
75.728,68.4
75.7446,51.7
75.7801,73.5
75.8182,93.3
75.8232,51.6
75.8297,404.1
75.8388,455.8
75.8458,49.9
75.8607,88.4
75.8689,199.7
75.8788,758.3
75.8986,44.8
75.9404,167.3
75.942,91.6
75.9633,451
75.9997,773.5
76.0025,59.1
76.0033,110
76.0272,146.4
76.0519,50.8
76.0727,73.5
76.0804,64.1
76.0945,18.2
76.097,115.6
76.1061,103.6
76.1151,190.1
76.1314,100.5
76.1643,136.3
76.1764,178
76.178,51.3
76.1825,137.7
76.2276,93.1
76.2402,39.3
76.2594,120.8
76.2712,69.7
76.2997,142.3
76.3163,88.1
76.3337,179.2
76.3607,30.4
76.3928,86.4
76.4019,46
76.4269,277.5
76.4586,945.7
76.4609,61.6
76.4676,669.9
76.4852,17
76.5042,19.5
76.5089,85.3
76.5126,16.8
76.5166,284
76.5396,372.6
76.5464,150.1
76.5768,113.7
76.597,53.1
76.5982,79.7
76.6125,384.9
76.6616,394.9
76.664,114
76.6865,504.6
76.6951,98.7
76.6997,296.3
76.7131,339.7
76.7162,287.6
76.7253,780.7
76.7544,52
76.77,71.2
76.7765,174.8
76.7787,225
76.7808,709.7
76.7922,87.9
76.7948,43.5
76.8021,179.3
76.82,334
76.8283,386
76.8558,67.5
76.8687,388.7
76.8749,17.4
76.905,41.1
76.9342,63.9
76.9555,537
76.9647,102.2
76.9662,684.8
76.9922,366.6
77.0087,20.3
77.031,211.1
77.0353,939.4
77.0383,133384.1
77.0713,66.7
77.0904,91.6
77.0945,54.5
77.1056,52.5
77.1185,53.5
77.1364,17.7
77.1407,323
77.1596,17.9
77.1767,86.6
77.1978,119
77.207,161.8
77.213,784.2
77.2176,97.5
77.2211,145.3
77.246,20.2
77.2555,89.5
77.2858,705.5
77.2984,678
77.3014,38
77.3483,77.8
77.3623,445.8
77.3665,42.6
77.3807,513.4
77.3885,157.8
77.4201,177.1
77.4327,96
77.4461,640.2
77.4663,18.4
77.4683,39.2
77.4891,346
77.4965,23.9
77.5056,83.2
77.5367,102.9
77.5505,72.6
77.5693,109.1
77.5883,21.4
77.5919,220.8
77.6013,121.3
77.6156,52.2
77.6374,469.1
77.6443,35.6
77.6529,84.1
77.7117,72.1
77.7187,357.4
77.74,68.7
77.7685,49
77.77,313.9
77.7747,194.9
77.7828,99.3
77.79,261.1
77.7974,79.2
77.8069,145.8
77.8217,238.2
77.8253,68.2
77.8332,687.1
77.8398,154.7
77.8486,43.4
77.9567,93
77.9697,355.7
77.9777,69.3
78.0347,61
78.0417,5087.3
78.0458,339.3
78.0727,802.5
78.075,68.2
78.0773,147.3
78.0797,343.7
78.0815,47.3
78.0829,45
78.126,735.7
78.1526,56.1
78.157,389
78.1691,161.2
78.1705,195
78.1969,16.3
78.2239,390.7
78.2427,97.7
78.2956,53.1
78.2986,85.7
78.3157,832.4
78.3385,854.8
78.3533,60.3
78.3701,113.2
78.3787,53.4
78.3901,56.8
78.3968,40.2
78.4008,166.5
78.4255,63
78.4431,53.5
78.4564,210
78.4673,137.7
78.4723,208.5
78.4744,15.5
78.4748,15
78.5121,115.9
78.5588,272.2
78.5621,714.8
78.5644,187
78.5717,52.4
78.5799,764.3
78.587,82.6
78.6045,682.5
78.6112,37.4
78.6512,89
78.6729,18
78.6844,300.2
78.6922,44.3
78.6987,476.3
78.7093,224.3
78.7096,236.4
78.7099,233
78.7234,124
78.7258,44.8
78.7318,19.1
78.7424,224.3
78.7965,49.7
78.8329,126
78.8401,553.9
78.844,100.7
78.853,82.2
78.8546,727.1
78.8673,58
78.8697,188.6
78.8758,927
78.9036,555
78.9047,16.5
78.9091,66.3
78.9169,48.8
78.9967,152.2
79.0285,78
79.054,5536.7
79.0802,43.1
79.0958,45.3
79.1277,86.2
79.1282,35
79.1398,40
79.1546,490.4
79.1694,58.4
79.1753,845.3
79.1812,43.5
79.1932,408.4
79.2201,70.3
79.2275,51.7
79.2497,764.2
79.2569,85.3
79.269,229.3
79.283,524.3
79.3195,294.2
79.3418,55.8
79.3476,698
79.3614,132.5
79.3875,94.4
79.3973,492.2
79.4035,158.5
79.4057,236.2
79.4551,58.4
79.4636,43.8
79.4749,44.2
79.4833,124.2
79.4967,54.8
79.504,254.2
79.5316,489.2
79.5328,151.3
79.5341,650.5
79.5588,57.9
79.5697,19.9
79.5777,199.8
79.5936,73
79.6364,20.6
79.6729,16.7
79.6788,70.6
79.7078,52.3
79.7129,173.7
79.7233,573.9
79.7444,712.9
79.7453,52.4
79.7486,46.2
79.7531,50.3
79.757,71.8
79.7756,363.6
79.7769,331.4
79.7787,71.6
79.8062,131.2
79.8122,65.9
79.8218,51.6
79.8232,38.7
79.8249,47.7
79.8607,54.8
79.8708,94.5
79.8847,162.5
79.8995,34.7
79.9004,570.3
79.9129,20.3
79.9218,62.1
79.937,70.5
79.9398,20
79.9602,40.5
79.9669,136.8
79.9798,150.5
80.0033,53.7
80.0155,492.8
80.0248,18.8
80.0434,71.2
80.0787,19.8
80.091,16.5
80.1116,615.8
80.1202,117.6
80.122,572.6
80.1347,92.5
80.1703,415.1
80.1744,39.5
80.1911,441.8
80.1947,172.2
80.2452,64.2
80.2491,167.6
80.2585,50.1
80.2719,83.4
80.2852,179.2
80.2928,18.3
80.3121,55.2
80.3305,44.4
80.3649,66.8
80.4339,56.9
80.4426,176.3
80.4495,818
80.4587,207.4
80.4621,40.3
80.4847,167.6
80.516,202
80.5318,361.2
80.5385,19
80.5494,18
80.5699,428.1
80.5795,580.2
80.5808,41.9
80.6062,345.2
80.6123,557.1
80.6188,196.4
80.6506,72.8
80.6881,40.5
80.6951,115.3
80.6978,110.3
80.699,47.4
80.7078,80.9
80.7188,184.9
80.7278,63.7
80.7556,306.2
80.7632,193.9
80.7644,685.8
80.7669,18
80.7734,43
80.7951,50.6
80.7958,123.8
80.7966,381.3
80.8199,50.7
80.8498,98.6
80.856,610.8
80.8648,167.5
80.8709,89.5
80.8724,39.3
80.8877,45.3
80.9006,449.8
80.9136,401.5
80.9295,351.4
80.9437,59.4
80.9476,27094.7
80.9816,600.8
81.0131,114.4
81.0173,68.4
81.0206,19.9
81.0335,18.6
81.0347,721.7
81.0386,128.4
81.0609,683.7
81.0653,704.3
81.0696,4134.8
81.0847,342.8
81.0946,80
81.1219,18.8
81.1307,54.1
81.1318,116.8
81.1381,973.2
81.1389,1220.7
81.1396,341.9
81.1407,613.2
81.1415,449.4
81.1422,166.8
81.143,442.2
81.1437,863.8
81.1445,231.4
81.1459,127
81.1491,62.9
81.1594,64.6
81.1632,113.6
81.1728,549.1
81.1803,282.2
81.2166,48.8
81.2597,33.5
81.2599,33.7
81.2647,296.5
81.2949,347.8
81.3066,34.6
81.3141,66.3
81.3363,36.4
81.3372,135.8
81.3501,43.2
81.3523,72
81.3583,46.6
81.3646,61.4
81.4127,148.6
81.4426,329.6
81.4441,17.6
81.4551,442.3
81.5336,89.3
81.5373,43.3
81.5546,228.8
81.5821,89.7
81.5855,347.9
81.6188,48.6
81.6286,362.6
81.6722,60.3
81.6799,48
81.6823,660.1
81.6985,55.8
81.7633,102.2
81.7708,81.3
81.783,105.7
81.7964,57
81.8028,64.2
81.8076,96.3
81.8107,85.1
81.8231,69.8
81.8613,169.5
81.8867,295.7
81.8878,342.2
81.8928,81.9
81.8937,548.7
81.8995,89.1
81.9036,313.4
81.9102,49.7
81.9267,45.3
81.9434,81.5
81.9538,219
81.9635,252.4
81.9792,35.3
81.989,132.4
82.0076,973
82.0153,50.3
82.039,458.6
82.0908,100.6
82.097,36.7
82.105,21.7
82.1072,168.8
82.1087,218
82.1109,35.8
82.1357,238.4
82.2111,69.5
82.2313,65.8
82.2454,84.9
82.247,54.8
82.2508,382.9
82.2585,31.5
82.2632,36.7
82.2674,93.8
82.2809,333.7
82.3111,501.1
82.3168,347.6
82.3328,17.9
82.3654,61.6
82.3944,101.3
82.4019,745.9
82.411,57.1
82.453,135
82.488,100.5
82.4994,145.1
82.5294,46.9
82.5463,968.9
82.5661,743.6
82.5703,424.2
82.6002,17.7
82.6022,42.3
82.6242,876.4
82.6424,769.3
82.6995,49.6
82.747,124.5
82.7561,82
82.7571,365.2
82.8003,160.2
82.8045,450.8
82.8333,385.4
82.8412,194.4
82.8634,84.2
82.8722,393.6
82.8914,428.6
82.9023,43.2
82.9075,154.3
82.9132,61.1
82.9209,38.5
82.9447,5792
82.9862,58.5
83.0286,92.1
83.0357,59
83.0635,317.2
83.0651,87.2
83.0763,386.1
83.0852,44.8
83.0941,159
83.1054,532.5
83.1188,394.8
83.1863,340.2
83.1912,78.2
83.2049,129.5
83.2066,37.3
83.2107,204.1
83.2146,51.2
83.2476,365.3
83.2598,59.4
83.2625,18.2
83.2728,18.2
83.3034,387
83.3302,18.5
83.3323,21.3
83.3378,46.8
83.3518,150.1
83.3556,233.8
83.3651,151.1
83.4077,67.4
83.4412,107.9
83.4526,40.1
83.5087,19.7
83.5143,109.2
83.5347,19.9
83.5367,591.5
83.5452,92.3
83.5713,431.8
83.5781,224.7
83.5864,35.2
83.6561,49
83.6608,79.3
83.6702,61.8
83.6829,17.4
83.7137,95.7
83.7152,504.1
83.7322,358.3
83.7469,120.5
83.7658,122.8
83.7667,79.6
83.7678,422.4
83.7711,152.1
83.7872,34.9
83.8026,501.4
83.8819,73.7
83.8977,874.6
83.9026,269.3
83.9139,24.4
83.9195,79.5
83.9208,69.3
83.9761,897.3
83.983,69.4
83.9914,96.4
84.0347,158.1
84.0441,532.4
84.0513,668.7
84.1078,351.4
84.1086,45.6
84.1222,133.3
84.1263,60.2
84.1335,115.4
84.1749,59.1
84.1786,22.2
84.1886,150
84.1919,206.2
84.218,54.1
84.2269,51.9
84.2339,380.1
84.2705,352.2
84.293,86.8
84.3005,396.6
84.3378,369
84.3461,634.2
84.3566,38.9
84.3571,36.1
84.3685,531.1
84.4312,46.1
84.4446,409.4
84.457,448.3
84.4621,70.2
84.4699,485.9
84.4706,18.5
84.5168,19.6
84.5503,78.7
84.5864,95.5
84.5867,131.4
84.5869,115.5
84.5943,522.4
84.6305,61.9
84.6515,299.5
84.6776,76.8
84.7027,52
84.7088,89.3
84.7312,925
84.7338,181.1
84.7363,156.1
84.7732,135
84.779,210.3
84.7981,383
84.824,111.7
84.8271,407.9
84.8385,53.6
84.8522,197.9
84.89,256.5
84.901,627
84.9594,18691.2
84.9857,743.8
84.9892,201.5
85.0282,1918.9
85.0445,163.2
85.0489,195
85.0507,175.6
85.067,460.1
85.0766,45.9
85.0801,381.2
85.082,49.3
85.085,109
85.0879,610.1
85.1038,228.7
85.1209,399.2
85.1338,549
85.1727,457.4
85.1866,511.7
85.2197,48.7
85.2268,62.3
85.2557,17.8
85.2663,59.6
85.2881,71.1
85.2957,57.1
85.3542,133.5
85.369,56.7
85.3727,340.9
85.4323,46
85.4341,79.1
85.4501,43.9
85.4646,682.9
85.4649,861.2
85.4651,698.2
85.4677,86.4
85.4892,42.4
85.5172,505.2
85.5315,53.8
85.5968,54.9
85.6386,62.1
85.6453,495.4
85.6498,52
85.6523,71.2
85.6817,115.9
85.6988,48.8
85.7201,163.5
85.7471,43.5
85.7599,218.9
85.7708,447.5
85.8048,387.2
85.8118,487.9
85.8213,208.6
85.9073,159.8
85.9262,179.8
85.9494,303.2
85.9974,65.1
85.9977,162.5
85.998,153.3
86.0014,60.5
86.0453,756.3
86.0598,75530.3
86.0707,203.6
86.0749,49.3
86.0868,349.9
86.0962,65407.6
86.1203,349.8
86.1441,150.4
86.1594,20.1
86.161,16.7
86.1617,43.1
86.1651,40.6
86.1669,464.2
86.2157,122.6
86.2791,73.4
86.3952,89.2
86.4177,44.6
86.4401,41.5
86.4515,223.2
86.4643,63.2
86.4793,269
86.4877,48.7
86.4907,265.5
86.4956,327.4
86.5264,1492.5
86.5473,326.7
86.5555,126.7
86.5653,55.4
86.5833,132.5
86.592,24.2
86.5974,176.2
86.5984,74
86.6334,416.9
86.6394,212.1
86.6676,48
86.7154,42.5
86.7414,67.4
86.7659,554.8
86.7722,546.9
86.8035,60.4
86.8649,369.4
86.8663,39.6
86.868,21
86.8685,98
86.8804,375.3
86.8995,86.5
86.8997,81.5
86.9002,46.8
86.9423,37.7
86.9531,296.2
86.9594,735.1
86.9606,163.8
86.9927,54.4
87.035,353.2
87.0378,91.2
87.0423,706.7
87.0519,45.6
87.0574,41.4
87.0831,528.3
87.1251,124.4
87.15,82
87.168,18.2
87.1877,75.7
87.2119,53.4
87.221,124.1
87.2268,156.4
87.2785,199.4
87.282,174.3
87.298,381.7
87.3173,48.8
87.3584,196.3
87.3781,66.4
87.3827,44.6
87.4056,348.4
87.4065,544.4
87.4144,51.9
87.4219,103.5
87.4463,85.5
87.4661,49.5
87.4758,77.8
87.5024,21.4
87.5229,43.6
87.5252,906.8
87.5334,184
87.5468,159.1
87.5741,207.1
87.6161,127.4
87.6303,111.3
87.6427,49.5
87.6519,268.4
87.6931,618.3
87.6994,907.2
87.7148,190.3
87.7361,44.5
87.7643,638.2
87.8084,146.5
87.8224,58.2
87.8282,57.2
87.8453,123.8
87.8593,375.4
87.8745,63.8
87.9055,402.5
87.9082,215.6
87.9204,80.1
87.9285,18.6
87.9543,44.9
87.969,54.4
87.989,42.3
87.9932,383.7
87.9986,324.3
88.0006,47.7
88.0018,39.5
88.0039,35.6
88.0299,351
88.0354,116.3
88.0391,20590.8
88.055,867.6
88.0617,165.5
88.0799,151.7
88.0892,179.6
88.0949,17.7
88.1218,69.6
88.1331,336.3
88.1602,44.8
88.1752,262.7
88.1889,432.9
88.2199,477.3
88.2247,266.6
88.2482,18.8
88.2993,261
88.3058,35.9
88.3217,139.1
88.332,290.4
88.3488,254.2
88.3554,112.7
88.3943,153.9
88.4093,407.6
88.4128,55.9
88.4233,103.9
88.4312,580.3
88.4331,343.1
88.4624,176.9
88.4635,175.7
88.4684,18.6
88.5126,356.7
88.5391,71.5
88.577,62.7
88.5958,601.7
88.6013,176.6
88.6165,78.4
88.6275,79.6
88.6409,18.1
88.6476,21.5
88.6758,431.7
88.6791,502.2
88.7131,65.7
88.7336,487.7
88.7796,58.3
88.8039,470.6
88.8274,73.8
88.8624,151.7
88.8681,52.2
88.884,627
88.8952,136.1
88.9375,62.3
88.9667,388.3
88.9805,82.2
88.9822,150.9
88.9995,20.1
89.024,98.7
89.0311,389.4
89.0424,133.2
89.0669,108.4
89.1179,86.6
89.1611,707
89.1627,343.2
89.1956,75.4
89.2213,183.2
89.2361,51
89.2505,84
89.2808,134.6
89.3011,195.8
89.321,774.9
89.3223,150.1
89.3258,63.2
89.3659,51.9
89.3763,47.6
89.4083,107.4
89.4543,41.8
89.4612,44.2
89.4887,65
89.5184,18
89.5249,160.5
89.5571,393.8
89.5998,56.4
89.6151,807.4
89.633,42.1
89.6699,57.2
89.6797,421.9
89.6904,50
89.6967,156.1
89.7417,64.4
89.7549,103.5
89.7561,450.3
89.7785,81.4
89.7898,280.4
89.7904,300
89.8248,380.5
89.8391,60.2
89.8504,105.5
89.8726,561
89.9236,527.6
89.9331,47.3
89.9634,23.1
89.9867,861.2
89.9908,146.6
90.0188,57.5
90.0413,435.7
90.0448,75.5
90.0717,605.1
90.1163,47.5
90.1621,52.9
90.1942,177.6
90.257,189.1
90.2694,89.5
90.2855,48.8
90.3138,50.4
90.3554,276.2
90.357,54.1
90.3645,729
90.3791,92.6
90.4042,564.2
90.4156,39.4
90.4282,198.8
90.4598,42
90.4869,19.6
90.4937,76
90.514,85.5
90.5426,560.2
90.5932,20.6
90.5988,56.7
90.6057,138.7
90.6099,17
90.6132,457
90.6414,48
90.6423,50.7
90.669,855
90.6771,37.9
90.6781,293.3
90.6911,42
90.6953,273.8
90.745,374.2
90.7514,81.4
90.7977,69.8
90.822,81.5
90.8563,44.7
90.8679,148.6
90.9112,48.4
90.9321,697.8
90.9416,77.8
90.9475,64.8
90.9515,17.7
90.9577,61.9
90.9764,5846.1
91.0004,42.6
91.0453,208
91.0541,3781.9
91.1123,59.5
91.1233,58.5
91.1625,45.2
91.2027,16.4
91.2087,516.7
91.2881,51.6
91.3197,17.8
91.3375,183.5
91.3609,126
91.3854,46.4
91.4058,33.5
91.4388,156.7
91.4504,111.7
91.466,53.4
91.4767,56.1
91.4809,71.7
91.4839,341.9
91.5023,55.8
91.5072,95.5
91.5153,426.7
91.5182,100.9
91.5514,108
91.557,125.8
91.5846,20.5
91.594,790
91.6003,167.9
91.6181,54.8
91.6658,170.8
91.7913,47.4
91.7983,534.5
91.8159,34.2
91.8439,93.9
91.8473,92.3
91.8621,47.3
91.8786,213.6
91.9068,46.7
91.934,81.7
91.9432,18.1
91.9614,201.1
91.9636,20.5
92.0446,47.4
92.0455,697.7
92.0465,58.9
92.0479,65.6
92.0576,19.9
92.0907,53.8
92.1247,110
92.1718,63.4
92.1996,541.2
92.2078,52.3
92.2286,99
92.2295,113
92.2396,43.8
92.2972,158.2
92.3195,92.7
92.3228,19.4
92.3247,38.7
92.3377,664.9
92.3501,42.3
92.3532,427.4
92.358,50.8
92.3693,18.2
92.3997,88.1
92.4113,46.6
92.438,499.2
92.4897,182.5
92.4934,18.5
92.5258,37.6
92.5308,63
92.5321,52
92.5488,460
92.5662,83.5
92.5693,184.3
92.6336,124
92.6709,170.1
92.6746,240.3
92.6862,931.6
92.6884,270.8
92.694,55.4
92.7003,396.1
92.7443,82.3
92.7485,50.5
92.8247,19
92.8585,535.6
92.8786,450
92.8992,46.9
92.9285,411.1
92.9578,74.3
92.9733,102.1
92.9772,51.3
92.9792,134.7
92.9882,49.6
92.9952,110.3
93.0125,576.2
93.0344,765.6
93.0395,407.6
93.0697,135
93.0718,573.1
93.1011,51.4
93.1132,18.3
93.1202,58.4
93.1627,470.3
93.1909,193.7
93.1988,579.1
93.2118,41.3
93.2278,37.3
93.2326,61.9
93.2564,47.7
93.2948,130.7
93.308,411.1
93.3124,712.3
93.3157,560.3
93.3378,87.9
93.3493,346.4
93.3681,116.1
93.3766,92.1
93.3957,20.6
93.4025,91.4
93.4466,57
93.45,114.9
93.4577,78
93.5284,347.5
93.5413,63.4
93.5482,154.9
93.5545,74.4
93.5554,88.8
93.5599,300.4
93.5652,74.8
93.5888,483.2
93.6083,117.4
93.6273,46.8
93.6328,118.4
93.6962,52.9
93.6985,149.4
93.7119,83.2
93.7402,17.5
93.7494,260.4
93.7802,104.9
93.8336,77.5
93.8524,36.9
93.8702,838.7
93.877,51.9
93.8835,368
93.8874,56.2
93.9125,228.3
93.9149,54.2
93.9402,69.6
93.9896,81.8
94.0283,223
94.0392,393.7
94.0412,122214.7
94.0718,150.7
94.0966,92
94.1376,86.1
94.1464,141.2
94.1762,48
94.1804,17.7
94.2192,337.6
94.2209,527.5
94.2265,64.4
94.2291,53.5
94.2332,48.2
94.2655,155.9
94.2744,496.3
94.2964,51.2
94.3014,47.1
94.3043,493.9
94.3277,63.7
94.3333,80.2
94.3362,19.3
94.3487,68
94.3496,18.9
94.3668,17.7
94.3867,106
94.3937,48
94.4138,55.9
94.4396,18.9
94.4738,203.4
94.4968,139.5
94.509,294.1
94.523,22
94.5272,339.9
94.5784,133
94.5855,798
94.5938,16.8
94.6022,312.7
94.6122,337.2
94.6252,51.4
94.6421,602.4
94.6572,17.2
94.6651,72.8
94.675,100.3
94.6882,34.6
94.6889,36.7
94.7159,117.9
94.7161,112.6
94.7938,176.5
94.8112,733.7
94.8246,246.7
94.8319,401.8
94.8482,125.3
94.8499,419.4
94.8558,84.7
94.8592,147.5
94.8745,59.6
94.9208,228.9
94.9873,336.8
95.0088,47.2
95.0244,67.5
95.0355,41.4
95.0445,4494.8
95.0462,32.5
95.049,452546.2
95.0513,39.2
95.0739,17.8
95.0854,837.1
95.1034,100.7
95.1071,247.1
95.1235,484.9
95.124,526.7
95.1285,131.4
95.1489,45.1
95.1525,67.1
95.163,18.1
95.169,94.5
95.1751,72.7
95.2163,90
95.2268,72.4
95.2331,42.4
95.2528,368.6
95.2855,37.5
95.3117,77.8
95.3254,19.6
95.3515,56.2
95.3595,604
95.4026,86.1
95.428,50.7
95.4562,419
95.4746,84.6
95.4911,55.6
95.5209,124.3
95.5256,776.6
95.5433,44.2
95.5949,69.7
95.6124,154.1
95.6639,361.5
95.6671,110.2
95.7046,87.3
95.7063,85.9
95.7289,67.7
95.7404,48.2
95.786,110.6
95.7878,64.3
95.8084,683.4
95.8123,40.6
95.8139,40.4
95.827,685.9
95.874,451.7
95.8848,16.6
95.9183,560.5
95.922,38.8
95.9317,686.9
95.9976,365.2
96.0158,320
96.0172,537.7
96.0263,141.5
96.0293,224.6
96.0378,49.5
96.0523,23406.6
96.0717,20.4
96.0868,36.4
96.101,19
96.1115,152.2
96.1538,230.3
96.1641,58.9
96.1763,40.6
96.1911,52.3
96.2011,18.5
96.2052,64.5
96.2139,54.3
96.2316,20
96.3013,207.3
96.3168,115
96.3254,122.2
96.3497,46.2
96.3655,42.3
96.3879,79.8
96.3928,87.4
96.4198,680.1
96.4236,43.6
96.4416,40.3
96.4562,58.8
96.4968,87.4
96.5031,339.3
96.5357,365
96.5365,269.4
96.5683,448.3
96.6031,43.2
96.6245,43.4
96.6274,16.8
96.6502,152.8
96.6596,82.3
96.6753,53.9
96.6804,355.7
96.6987,67.7
96.7023,53.5
96.7111,293.3
96.7279,44.9
96.7608,18.1
96.8112,259.4
96.8207,141.6
96.9076,53.1
96.9159,500.1
96.9216,88591.5
96.977,62.7
96.9808,296
96.9842,61.3
97,235.7
97.0074,58.1
97.0106,20.6
97.0533,66.2
97.0558,154.3
97.076,65.2
97.0794,585.4
97.0807,149.3
97.0883,44.1
97.101,190.6
97.1351,39.5
97.1367,781.4
97.144,71.1
97.1523,46.1
97.1926,255.4
97.2414,78.7
97.2449,629.5
97.3425,85.4
97.3518,590.5
97.3579,357.4
97.3902,254.6
97.4324,157.8
97.4348,96.7
97.4564,18.1
97.4588,39.4
97.4901,93.5
97.4987,159.9
97.509,891.5
97.5148,410.2
97.5343,61.5
97.5358,68.7
97.5463,457.2
97.5672,74.3
97.5987,140.1
97.635,67.4
97.6744,47.4
97.7132,61.1
97.7466,53
97.7894,704.2
97.7934,514.1
97.8275,82.1
97.8446,132.7
97.8509,39.8
97.8951,245.3
97.9091,161
97.9403,762.9
97.9426,43
97.9744,133.4
98.0527,38
98.0566,566
98.0913,234
98.1061,70.5
98.1142,17
98.1617,41.3
98.184,169.3
98.2115,203.6
98.3242,146.1
98.3631,205.8
98.3711,471.9
98.3831,69.6
98.4799,294.7
98.4833,501.1
98.5043,623.7
98.5162,44.3
98.5217,613.1
98.5291,420.8
98.5664,98.3
98.622,39.7
98.6309,71.4
98.6555,150.1
98.6627,47
98.6988,19.4
98.717,237.8
98.7679,832.4
98.7838,154
98.7872,123.6
98.7963,45.1
98.812,52.8
98.8305,77.7
98.8599,54.8
98.8741,38.6
98.8993,322.8
98.9038,501.7
98.9187,24132.5
98.9198,3719.7
98.9432,91
98.9491,172.3
98.9543,438.7
98.9752,6089.3
98.984,108.1
98.9948,76.5
99.0195,750.7
99.0916,172.3
99.0987,249
99.109,79.8
99.1142,37.7
99.123,172.7
99.1427,65.5
99.1662,46.2
99.199,445.1
99.2047,460.9
99.2063,341.7
99.244,58.5
99.2511,405.2
99.284,693.3
99.2998,158
99.3014,19.1
99.3311,102.3
99.3557,100.3
99.3812,94.5
99.3914,708
99.4399,72.9
99.4436,130.1
99.4579,17.7
99.4653,108.1
99.4808,77.1
99.5514,632.3
99.6086,396.8
99.6188,314.5
99.666,76.4
99.6812,38.3
99.6912,80.4
99.7199,445.9
99.7809,17.7
99.7971,372.2
99.8089,479.3
99.82,116.6
99.8386,47.7
99.8438,53.7
99.8722,509.3
99.9168,447.5
99.9193,44.2
99.9526,197.6
99.975,64
100.0099,156
100.0575,20.7
100.0756,38.5
100.1209,21.2
100.1223,56.5
100.1428,494.4
100.1494,407.8
100.151,216.2
100.2011,94.8
100.2234,82.7
100.264,394.7
100.278,48.6
100.2909,417.3
100.3173,73.6
100.3207,464.3
100.3422,70
100.3676,381.4
100.3746,119.2
100.4413,435.2
100.5421,123.1
100.5778,259
100.6879,137.4
100.714,103.1
100.7414,48.5
100.7477,109.3
100.7677,88.4
100.8322,48.2
100.8394,366
100.9113,353.4
100.9511,127.9
100.9639,323.4
100.9832,232.4
100.9907,18.3
100.9998,60
101.0059,57.3
101.0097,418.9
101.0146,377.1
101.047,6349.4
101.0709,75.1
101.0807,85
101.0953,81.6
101.1109,129.9
101.1124,198.4
101.1134,43.5
101.1457,53
101.1523,42.2
101.1647,51.7
101.1752,75.8
101.1787,101.6
101.1959,296.4
101.2225,542.6
101.2325,18.5
101.2626,60.9
101.2644,128.8
101.316,117.9
101.3358,42.9
101.3454,43.2
101.357,67.2
101.3683,83
101.3718,964.5
101.3822,86.6
101.4156,182
101.4926,423.8
101.4973,904.6
101.5246,54.3
101.5339,48
101.5393,497.7
101.5405,39.6
101.5627,162.1
101.6123,205.1
101.6546,104.6
101.6909,41.6
101.6925,16.3
101.7126,73.1
101.7456,18
101.752,215.7
101.7628,105
101.789,183.1
101.804,281.5
101.8076,160.3
101.8216,56.7
101.8383,61.1
101.8697,298
101.9496,610.3
101.9526,57.8
101.9642,834.3
101.9744,45.6
101.981,349
102.0151,86.7
102.0548,10282.4
102.0898,34.3
102.1618,41.3
102.1695,166.9
102.1967,815.3
102.2008,41.6
102.2087,49
102.2477,58.6
102.2811,799.6
102.2834,75.6
102.3059,93.6
102.3097,185
102.3156,16.7
102.3246,51.8
102.3268,39.2
102.3283,49
102.3303,264.3
102.3572,18.8
102.4088,607.8
102.4342,88.6
102.4369,139.1
102.4518,127.6
102.4701,513.8
102.4719,126.6
102.4857,74.2
102.5112,18.2
102.5258,366.2
102.5645,369.9
102.5878,73.8
102.6092,125.2
102.6127,44.6
102.6313,17.1
102.6468,16.5
102.6553,445.5
102.6577,78.8
102.6672,272.9
102.6829,61.4
102.6923,80.7
102.7032,396.2
102.7066,279.7
102.7107,649.3
102.7824,46.6
102.7909,45.3
102.7972,344.7
102.8418,84.8
102.8492,54.2
102.8677,737.7
102.8689,37.5
102.8744,119.2
102.9375,152.1
102.9497,353.4
102.9701,621.9
102.9781,134.2
103.0516,39.8
103.0802,364.1
103.0945,52.2
103.0967,318.6
103.1308,47.5
103.1354,42.2
103.1529,110.2
103.2145,328.1
103.2284,59.9
103.239,56.6
103.2467,19.4
103.2897,80.4
103.3232,77.4
103.3445,48.5
103.3459,44.7
103.395,226.1
103.3977,165.8
103.4005,340.5
103.405,351.6
103.4478,310.3
103.4957,810.7
103.5127,38.7
103.5199,741.5
103.5468,163
103.553,23.9
103.5706,821.2
103.574,50.1
103.6106,58.7
103.662,55.3
103.6692,62.1
103.6775,249.9
103.689,17.7
103.7016,17.2
103.7062,378.4
103.7667,126.6
103.7908,52.7
103.8093,36.6
103.8109,44.7
103.8123,111.1
103.8161,38.1
103.8197,78.2
103.8219,39.3
103.8241,502.5
103.8391,89.5
103.8606,286.1
103.9488,81.4
104.0454,218.9
104.0469,59.1
104.0705,244.1
104.1068,313064.3
104.1427,231
104.2092,46.4
104.2141,54.7
104.2396,59.3
104.2656,38.2
104.2694,238.1
104.3128,165.1
104.3153,573.5
104.3406,112
104.346,18.6
104.3582,181.7
104.3696,51.9
104.4213,117.9
104.4998,82.6
104.5372,524.3
104.5927,53.7
104.6035,123.1
104.6847,53.3
104.6897,90.1
104.7454,72.7
104.7573,135.4
104.78,63.8
104.8091,344.6
104.8129,428.9
104.8281,37.8
104.8292,389.4
104.8496,600
104.8742,109.3
104.892,151
104.8954,80
104.9103,356.7
104.9603,17.5
104.9632,198.4
104.9922,1383.6
105.0032,20.9
105.0328,57.9
105.0446,43948.2
105.0906,54.6
105.0924,430.7
105.0962,437.4
105.1102,12165.3
105.114,50.4
105.1791,39.6
105.2139,52.2
105.243,187.2
105.3013,380.6
105.3107,124.3
105.4228,42.7
105.4308,396.7
105.4348,171.2
105.4644,17.7
105.4915,238.6
105.4948,175.7
105.4958,357
105.6229,130.2
105.638,45.8
105.6598,46.7
105.6699,39.1
105.6759,17.7
105.6894,44.6
105.7028,42.4
105.7043,36
105.7104,53
105.7377,372.3
105.8255,50.4
105.8289,126.3
105.8432,776.5
105.8591,163.9
105.8647,104.2
105.8665,76.4
105.8685,265.7
106.0149,88.1
106.0207,74.5
106.048,1524.6
106.0522,126.8
106.0702,19.7
106.1841,449.5
106.1902,115.4
106.1979,17.9
106.2128,92.3
106.2169,685.8
106.2933,86.6
106.2958,149.4
106.2985,47.4
106.3214,864.4
106.3456,39.9
106.3868,600.5
106.3983,80.1
106.4071,257.8
106.4112,228.6
106.4165,157.8
106.4237,115.5
106.5076,343.3
106.518,468.6
106.5762,44.3
106.5908,72.5
106.6019,354.6
106.6239,18.5
106.7421,79.7
106.7575,91
106.8335,17.4
106.8807,79.5
106.9093,45.4
106.9441,152.4
106.9504,635.3
106.9773,190
106.9918,94.7
107.0163,515.4
107.0282,135.4
107.0337,40.7
107.049,1530.7
107.0576,623.6
107.0593,109.1
107.0675,428
107.0856,65.7
107.0896,676.3
107.1203,91.8
107.142,393.7
107.1495,43.8
107.1655,825.9
107.1944,158.6
107.2074,67.9
107.2182,80.7
107.2344,435.1
107.2467,377.4
107.2627,792.5
107.2716,212.8
107.2776,245.3
107.328,241
107.343,382.5
107.3606,106
107.3621,117.8
107.3786,405
107.3871,126.5
107.5302,37.9
107.5473,20.4
107.5917,59.1
107.655,556.5
107.6899,222.1
107.697,257.8
107.7045,44.7
107.7755,44.5
107.7793,18
107.7825,274.7
107.818,21.2
107.8214,19.9
107.8259,91
107.841,170.2
107.8657,102.1
107.8683,109.2
107.8779,90.2
107.8795,944
107.9212,56.8
107.948,252.9
107.9556,110.6
107.9712,67.9
107.9846,140.6
108.0051,552
108.0204,136.4
108.0244,328.4
108.0375,21.3
108.0524,26.3
108.0568,58.1
108.114,48.8
108.1365,66.5
108.1375,166.3
108.1714,743.2
108.1717,749.1
108.2695,202.1
108.2863,54.1
108.3295,395.5
108.3531,497.3
108.3857,90
108.3885,21.6
108.4139,430.2
108.4178,377.7
108.4535,395.9
108.4827,116.6
108.5325,360.2
108.5702,18.1
108.5728,88
108.5749,644
108.5831,530.2
108.5897,16.4
108.6246,415.1
108.6259,53
108.6308,17.2
108.6716,778.5
108.6814,267.7
108.7554,47.4
108.7629,48.9
108.7646,86.3
108.7776,45.2
108.7915,214.2
108.8463,390.9
108.8738,618.4
108.8772,37.6
108.8912,718.7
108.9211,126
108.9534,584.4
108.9979,41.7
109.0082,52.8
109.0152,65.2
109.0204,33.2
109.0266,40
109.0483,343.2
109.0586,52.3
109.0647,138452.3
109.0667,32.3
109.1011,263.3
109.1359,390
109.1861,118.8
109.2501,720.4
109.2535,37
109.2798,89.3
109.2871,83.7
109.2897,690.7
109.2911,178.7
109.3444,47.4
109.3485,256.6
109.4012,125.6
109.4207,71.6
109.4462,53.2
109.4477,338.5
109.4561,71.6
109.4681,79
109.492,52.1
109.5032,207.1
109.5337,162.7
109.5552,38.1
109.5918,630.8
109.6738,150.3
109.7077,55.4
109.7807,54.5
109.8745,54.1
109.901,68.7
110.0169,631.8
110.0255,34.1
110.0528,18.9
110.0632,117.8
110.068,7249.9
110.0712,454.8
110.0839,19.4
110.0924,168.2
110.1151,144.1
110.1302,19.1
110.1345,17.8
110.1774,51.2
110.2371,760
110.2524,160.6
110.2754,88.3
110.2975,333
110.3903,74.5
110.4075,267
110.4448,65.8
110.5137,156.4
110.523,133.1
110.5328,335.4
110.5389,735.1
110.5453,99.5
110.5652,77.1
110.6054,17.3
110.6403,383
110.6464,367.1
110.7024,400.1
110.7137,422.6
110.7396,117.1
110.7808,454.6
110.8191,167.7
110.8256,809.1
110.8473,39.9
110.849,275.5
110.8928,257.5
110.9097,190.9
110.9409,83.4
110.9567,54.7
110.9677,381.4
111.0231,321.8
111.0439,544.5
111.0679,65.1
111.0713,22.6
111.0791,100
111.0801,19.7
111.1148,38.1
111.1668,45
111.191,90.5
111.2388,58.6
111.2723,468.6
111.2962,358.4
111.3314,121.2
111.3359,746.7
111.3402,183.7
111.3506,186.4
111.4562,85
111.4635,47.8
111.4669,114.7
111.4689,86.4
111.5423,57.5
111.5478,348.2
111.6663,18.7
111.6675,73.9
111.6802,134
111.7015,108
111.7216,171
111.7465,44
111.8887,44.5
111.8979,857.2
111.9005,18.2
111.9063,718.2
111.995,369.7
112.01,51.2
112.0238,69.8
112.0527,740.3
112.0623,159.4
112.072,139.1
112.1656,114.6
112.1873,43.7
112.1901,54
112.1944,298.1
112.2014,61.1
112.2061,88.2
112.2196,53.3
112.2375,122.3
112.2698,38.9
112.2835,610.4
112.2869,65.8
112.3179,107.9
112.3511,37.9
112.3638,99.4
112.3808,44.1
112.3899,70.2
112.4271,808.9
112.4612,684.1
112.4737,828.7
112.4855,16.4
112.5316,263.5
112.5347,252.3
112.5366,47.2
112.5798,512.4
112.6224,159.2
112.663,17.8
112.7154,608.4
112.7492,73.7
112.7594,360.5
112.7702,84
112.7813,478.6
112.799,70.6
112.8472,53.6
112.8956,297421.1
112.8974,112.3
112.9065,77.2
112.922,202.2
112.9494,467.5
112.9633,53.7
112.9878,390.6
113.0754,67
113.0876,70.2
113.0903,19.8
113.2391,45.2
113.2429,41.9
113.2853,87.5
113.2988,40.6
113.3137,590.7
113.3369,93.5
113.364,92.3
113.3692,490.2
113.3884,157.7
113.3917,273.8
113.403,68.9
113.4065,67.3
113.4215,89.1
113.4608,86.7
113.4919,888
113.4998,57.1
113.5815,97.3
113.5849,295.6
113.5975,176.6
113.6072,41.5
113.6094,576.2
113.6268,40.1
113.6706,42.9
113.6767,63.5
113.6808,44.9
113.6868,351.5
113.7699,144.2
113.7777,109.3
113.8039,27.6
113.8218,457.7
113.8323,48.3
113.8803,228.7
113.9162,79.8
113.9734,505.4
114.0125,45.2
114.02,43.9
114.0286,77.1
114.0549,129388.8
114.0661,1543.2
114.0682,867.8
114.1028,211
114.1189,19.5
114.1372,43
114.1529,417.8
114.2136,398.6
114.2703,17.9
114.2773,88.1
114.3068,56.6
114.3782,58.1
114.3976,42.2
114.4516,83.9
114.4787,42.6
114.49,41.9
114.5819,108.8
114.6354,363.5
114.6463,75
114.6526,123.4
114.6814,18.3
114.7176,86.9
114.7208,68.9
114.7289,51.4
114.7598,48.5
114.7658,145.2
114.8226,39.9
114.8843,81.9
114.8927,91948
114.9482,18.9
114.9521,152.1
114.9809,85.1
114.9869,36.4
114.9974,165
114.9981,167.3
115.0116,17.3
115.0582,4107.6
115.0861,76.2
115.1148,264.7
115.1323,339.9
115.1731,43.2
115.1783,18.4
115.1878,614.3
115.2066,41
115.2203,18.1
115.2584,122.9
115.2785,62.4
115.297,455.5
115.2997,84
115.354,196.3
115.377,75.8
115.3917,215.7
115.4097,65.3
115.412,55.1
115.4262,17.6
115.5399,551.7
115.5951,80
115.5967,373.7
115.6015,344.5
115.6028,552.4
115.6198,77
115.6289,114.2
115.6675,41.2
115.7738,361.4
115.7902,87.3
115.7939,157.1
115.8184,719.1
115.8296,201.3
115.8373,132.4
115.8626,18.1
115.8763,787.6
115.8956,695.5
115.9265,119.8
115.9364,40.6
115.9384,54.6
115.9946,140.4
116.0146,89.5
116.0179,79.9
116.0582,20.7
116.0604,112.8
116.0705,4805.5
116.0977,63
116.1129,66.4
116.1341,741.1
116.1429,33.9
116.1975,100.5
116.2133,389.9
116.216,132.1
116.2661,56.5
116.3433,61.4
116.351,73.1
116.3698,88.4
116.4075,321.5
116.486,141.7
116.5382,217.1
116.5788,60.6
116.6408,296.2
116.6415,322.7
116.6422,286.9
116.6555,187.2
116.696,293.9
116.7066,46.5
116.7077,395.9
116.719,21
116.7413,542.8
116.7477,52.2
116.764,16.4
116.8096,385.5
116.8461,335.4
116.8788,84
116.8908,10714.3
116.9459,97.3
116.9609,79.8
116.9654,78.6
116.9794,907.9
116.9858,4884.5
117.0556,794.1
117.0719,630.8
117.1105,178.9
117.1655,63.5
117.2296,160.9
117.2603,68
117.2624,349.9
117.3042,816.1
117.3096,238.4
117.3742,87.7
117.3906,19.9
117.4007,954.1
117.4103,429.2
117.5191,349.2
117.5718,57.7
117.5748,44
117.5994,71
117.6577,869
117.664,51.7
117.6757,44.8
117.6939,19.9
117.7473,48.2
117.7577,93
117.7689,116.7
117.7948,218.2
117.8205,158.1
117.9234,66.2
118.0499,135.7
118.0519,52.9
118.054,39.3
118.0599,18.8
118.1603,81.6
118.1957,379.4
118.2255,50.4
118.3035,369.1
118.3575,67.7
118.3825,717.8
118.4236,157
118.4311,522.3
118.5246,283
118.5349,194.1
118.5363,361
118.5423,460.5
118.5704,158.7
118.5918,1102.6
118.6109,236.8
118.6456,386.8
118.6862,56.7
118.7287,61.5
118.7961,847.3
118.9258,462.3
118.9323,51
118.9788,52.6
118.9907,19.3
119.0188,25.7
119.0428,78.6
119.0801,73.4
119.0855,42.4
119.1091,40
119.1463,85.6
119.1496,581.7
119.1605,110.3
119.1823,238.8
119.2591,110.5
119.2604,123.2
119.2734,274.3
119.3388,36.7
119.4015,17.9
119.424,711.7
119.4537,152.8
119.4798,359.1
119.4844,55.5
119.4976,847.3
119.5005,320.2
119.5057,822.5
119.5517,550.2
119.5688,17.6
119.6394,116.5
119.6927,80.6
119.7065,801.9
119.7456,158.4
119.7578,91.3
119.7756,435.5
119.8385,104.1
119.8464,99.2
119.8918,171
119.8958,137.6
119.9465,44.2
119.9656,18.3
120.003,541.1
120.0428,64.1
120.0806,3983.8
120.0828,61.4
120.1407,60.5
120.1523,108.9
120.192,239.8
120.1937,40.3
120.2509,482.6
120.271,310.1
120.3049,81.8
120.3415,50.9
120.3779,117.6
120.3847,624.2
120.3919,59.9
120.3948,43.3
120.4212,330.6
120.4399,657.4
120.4435,41.1
120.4806,51.6
120.5251,141.4
120.547,58.9
120.5551,89.5
120.5749,177.4
120.6282,483.7
120.6369,18.4
120.6548,89.5
120.6892,35.1
120.7038,175
120.7758,53.6
120.7775,69.2
120.7924,587
120.8022,95.3
120.9113,74.4
120.9457,333.8
120.9807,185.3
121.0002,44.2
121.0075,429.6
121.0283,300.4
121.0371,110.6
121.0926,98.5
121.1011,99.9
121.125,68.8
121.1291,581.2
121.1323,315.1
121.2441,530.5
121.2595,100.7
121.2789,64.8
121.2809,55.1
121.3067,22
121.3139,35.2
121.3215,59.3
121.3322,376.4
121.37,55.2
121.4195,67
121.4754,83.6
121.5133,49.4
121.5223,180.6
121.5251,84.3
121.5672,101.9
121.6185,178
121.6303,120.5
121.6638,46.3
121.6724,149.1
121.6756,493.9
121.6779,61.1
121.6816,189
121.6995,326.6
121.7252,120.7
121.7574,896
121.7775,324.8
121.836,61.2
121.8481,334.6
121.8559,54
121.9161,724.5
121.9434,174.4
121.9463,80.8
121.9691,52.4
122.0104,192.1
122.0428,46.9
122.0778,53
122.1536,86.4
122.2183,374
122.2828,74.5
122.3253,71.5
122.3307,64.6
122.3751,135.4
122.3779,353.1
122.4104,160.5
122.429,82.7
122.4562,42.2
122.4802,560.1
122.5047,177.1
122.5282,55.5
122.5363,459.8
122.5437,353.5
122.5672,683
122.5987,231.3
122.6021,91.6
122.6162,164
122.6447,37.3
122.6513,317.1
122.6932,52
122.7336,169.3
122.7504,197.6
122.7701,714.9
122.8068,254.9
122.8133,349.1
122.8197,186.1
122.8716,573.5
122.9001,74.7
122.9161,45
122.9244,13774.8
122.9541,46.5
122.9739,20.4
122.9787,184.5
122.982,711.5
122.9835,580.5
123.0038,180.6
123.0283,61.5
123.0356,19
123.0471,48.8
123.0621,46.3
123.0803,53.2
123.1068,696
123.1161,93.1
123.1187,115.8
123.152,115.3
123.1571,220.2
123.1665,843.5
123.1679,17.1
123.1801,511.9
123.2076,144.5
123.2281,45.8
123.2397,744.4
123.241,761.5
123.2692,200.4
123.2754,44.3
123.2904,382
123.3198,75.8
123.3897,46.2
123.4209,44.7
123.4244,295
123.4321,43.8
123.4411,100.6
123.505,89.8
123.5697,63.7
123.6002,20.5
123.6928,52.4
123.7107,818.1
123.7457,291.4
123.7778,99.1
123.7955,15.9
123.7984,298.1
123.8103,328.3
123.8152,18.1
123.8292,16.7
123.8319,265
123.9237,125.5
123.9467,70.6
123.9796,59
124.0207,361.2
124.037,431.9
124.0718,202.4
124.0969,208.5
124.1017,787.2
124.117,92.8
124.141,41.2
124.196,201.5
124.2487,65
124.3178,73.3
124.3242,168.5
124.3538,207.7
124.354,208.4
124.3564,99.9
124.3806,43.9
124.3947,974.1
124.4097,312.2
124.4127,89.9
124.4231,359.6
124.4917,43.3
124.5725,69.4
124.5809,536.5
124.6144,564.8
124.6264,61
124.7323,15.6
124.7374,149.2
124.74,434.5
124.8437,563.2
124.8464,345.5
124.8529,806.6
124.8843,162.5
124.8921,321.4
124.9043,686.3
124.9203,193.9
124.9225,930.2
124.9337,380.6
124.9342,383.4
124.942,71.7
124.9536,72.6
124.9912,55.1
124.9997,4966.1
125.0055,165.8
125.0388,491.1
125.0523,742.3
125.0595,98.1
125.1479,15.7
125.1834,75.3
125.1901,186.5
125.1959,109.3
125.3094,348.4
125.3611,18.7
125.3637,570.8
125.4305,770.6
125.4973,771.8
125.5194,19.5
125.5627,52
125.6631,260.7
125.6786,128.4
125.692,570.5
125.7435,380.9
125.7692,19.9
125.7824,256
125.7877,374.9
125.7967,60.3
125.8091,579.7
125.8251,325.5
125.8426,50
125.854,54.1
125.8575,187.5
125.8629,45
125.8807,39.4
125.9156,141.9
125.9416,117.9
125.9696,452.2
125.9856,19
126.0027,612.7
126.0279,47.6
126.044,525.2
126.1433,40
126.1505,47.3
126.1537,96.4
126.1737,61.3
126.2003,87.2
126.2674,104.2
126.3632,64.7
126.3835,280.9
126.4486,186
126.4585,66.8
126.4666,49.8
126.5107,359
126.5222,66.9
126.5394,72.1
126.5585,51.4
126.5706,62.3
126.577,167.9
126.5979,201.4
126.6605,45.3
126.6789,129.5
126.6875,285.9
126.7261,102.5
126.732,22.4
126.734,55.4
126.76,391.4
126.7802,182.5
126.8192,75.9
126.859,302.3
126.8829,207.4
126.9059,19
127.0008,17.5
127.0047,139.6
127.0225,410.8
127.029,155.9
127.0476,27.2
127.0688,38.3
127.0757,177.5
127.0984,49.8
127.1695,77.5
127.2549,582
127.3458,17
127.3501,125
127.3969,44.2
127.4027,96.6
127.4078,102.6
127.5095,36.5
127.6584,50.2
127.6612,189.2
127.717,305.4
127.7671,490.2
127.7718,165.6
127.7759,51.9
127.7903,136.5
127.7961,91.2
127.8066,76.8
127.8317,745.6
127.8425,788.7
127.8781,499.8
127.9103,38.2
127.9529,986.8
127.9783,457.5
127.9902,42.1
128.0505,370.6
128.1164,161.6
128.1186,43.3
128.1344,557.2
128.1785,156.6
128.1963,764.9
128.2116,812.3
128.2139,199.7
128.2958,263.6
128.3038,85.8
128.316,143.1
128.4235,177.2
128.4417,149.3
128.4496,82.8
128.4629,309.4
128.4784,102.8
128.4914,17.9
128.5097,106.9
128.516,56.7
128.5241,452.2
128.5289,314.7
128.5768,78.5
128.6109,566.5
128.6358,26.3
128.6491,21.4
128.6829,40.8
128.697,241
128.7107,708.4
128.7278,530.7
128.7939,574.8
128.8698,48.4
128.8779,806.5
128.9517,95.1
128.9522,90.3
128.9552,60.5
128.9688,840.6
128.9789,472.7
129.0032,608.7
129.0956,825.5
129.1022,23.8
129.1199,57.4
129.1353,41.6
129.2118,687.6
129.2132,35.7
129.2768,19.9
129.2983,38.5
129.3052,79.5
129.3253,29.7
129.3917,69.4
129.4234,257.2
129.4698,41.6
129.472,52.4
129.5146,119.4
129.6145,17.8
129.6649,47.8
129.6754,656.9
129.7174,115.4
129.7378,86.8
129.7793,48.6
129.8443,441.2
129.9308,140.5
129.9548,197.7
129.9836,19.4
130.0498,5801.8
130.0727,141.6
130.098,17.8
130.1288,78.6
130.1434,98
130.2485,45.3
130.2679,410
130.2771,77.7
130.3204,371.1
130.3836,46.9
130.4391,49.5
130.4444,41.3
130.4616,331.2
130.5334,73
130.5435,40.9
130.5468,90.2
130.5848,43
130.6842,250.2
130.7553,79.4
130.7593,22
130.8499,45.1
130.9688,63.4
131.0015,830.7
131.007,83.8
131.012,703.6
131.0192,479.3
131.0328,51.5
131.038,258.2
131.0416,57.9
131.0743,840.4
131.0813,41.6
131.1049,167.2
131.1235,46.5
131.3233,80.3
131.3592,161
131.3692,384
131.3977,55.1
131.4073,108.7
131.4309,62.2
131.4659,680.2
131.4915,295.1
131.4937,60.4
131.5046,129.2
131.5361,259.8
131.5416,18.9
131.6252,154.5
131.6782,382.6
131.7182,589.3
131.7201,79.6
131.7449,75.5
131.7466,216.6
131.7681,600.8
131.8405,56.3
132.0031,17521.1
132.0126,43.6
132.0579,44.9
132.0595,50.6
132.0655,250907.9
132.0767,1848.4
132.1118,435.6
132.1144,397.2
132.1643,165.2
132.1759,302.4
132.2427,562.9
132.2745,40.9
132.2915,412.4
132.298,112.6
132.3088,359.8
132.3431,192.4
132.3619,775.2
132.3815,111.7
132.3978,55.1
132.4931,863.6
132.4963,17.9
132.5014,647.3
132.513,55.5
132.5479,423.2
132.5746,40.4
132.5832,38.2
132.6051,746
132.6133,40.1
132.6164,36.9
132.6173,91.8
132.7798,163.7
132.8332,767.8
132.8784,211.2
132.8811,88.2
132.8936,162
132.9027,24.3
132.9227,17.4
132.9327,483.5
132.9529,444.2
132.9559,53.9
132.9582,27.8
132.9602,69.8
132.9871,911.3
133.0014,18.8
133.0127,384.4
133.0179,74.3
133.0625,75.3
133.0689,9163.1
133.0859,22
133.0971,12319.3
133.101,256.2
133.1252,480.6
133.1535,47
133.1975,888.6
133.248,389.4
133.2613,49
133.2804,40.3
133.2935,80.9
133.3196,542.6
133.3353,213.5
133.3816,18
133.3853,296.7
133.4389,43.6
133.6157,492.3
133.7083,59.4
133.7361,43.2
133.7485,101.2
133.8204,127.4
133.8845,265.5
133.9047,369.8
133.9152,70.8
133.9255,91
133.9325,90.3
133.9389,107.9
133.9491,502
133.9684,801.5
133.9761,85.6
134.0188,4718.5
134.0413,403.5
134.0446,40
134.055,573.2
134.0695,87
134.0713,86.1
134.0758,77.9
134.1218,41.5
134.172,268.6
134.1795,42.1
134.2597,75.9
134.2697,44.5
134.3049,80.6
134.4004,19.2
134.4076,295.1
134.4308,171
134.4723,619.5
134.4942,338.6
134.4949,329.5
134.5561,109.6
134.5725,79
134.6873,22.3
134.7152,79.5
134.7206,39.5
134.736,138
134.8146,108.2
134.8216,140.2
134.8355,441.2
134.8382,59.6
134.9213,587.2
134.9825,59.8
134.9965,222.2
135.0028,47967.1
135.0236,100.3
135.0644,77.6
135.0741,128.2
135.093,514.2
135.1103,272.4
135.1168,18.9
135.1436,77.8
135.1776,258
135.1804,240.6
135.2158,272.1
135.2218,368.4
135.2257,58.5
135.3545,170.6
135.3737,112.3
135.4085,389.5
135.4419,60.1
135.458,144.4
135.4721,157.3
135.4746,816.5
135.5209,474.2
135.5633,174.7
135.6234,513.2
135.6957,90.2
135.76,81.6
135.7694,177.2
135.7811,193.1
135.8469,79.2
135.8603,19.6
135.8714,144.9
135.9181,89.6
135.977,648.1
135.9949,382.1
136.0061,465.8
136.016,250.6
136.0406,58.3
136.0481,7524.7
136.0756,2053.4
136.0783,67.8
136.1184,250.4
136.1254,113.4
136.1764,334.3
136.1843,183.1
136.1931,389.5
136.2726,118
136.2778,763.4
136.289,49.3
136.2978,111.2
136.3109,91.3
136.3155,33.4
136.3539,131.7
136.4639,337.6
136.537,46.2
136.5646,237.5
136.5978,411
136.6184,79.4
136.6306,98.6
136.643,404.3
136.6503,150.8
136.6642,441.6
136.7435,637
136.817,79.6
136.8329,296.4
136.8906,40.7
136.9188,119.3
136.946,55.1
137.0524,385.2
137.0919,275.1
137.0999,152.3
137.1353,91.2
137.1923,81.7
137.2089,558.9
137.2302,68.7
137.2491,617.3
137.2798,54
137.2898,401
137.2968,461.9
137.3277,511.4
137.3717,915.9
137.4409,100.1
137.5029,89.1
137.5195,129.8
137.5384,79.6
137.562,501.4
137.5742,58.7
137.5828,42.5
137.6273,57.2
137.6355,774.8
137.6651,74.6
137.6802,50.3
137.7048,767
137.7423,648.6
137.7627,121.2
137.7868,392.9
137.7968,117
137.8473,402.4
137.8523,476.1
137.8791,36.2
137.8886,71.1
137.9223,588.9
137.9721,56.3
138.0227,164
138.0242,67.4
138.0317,122.3
138.0525,7959.9
138.0553,54.7
138.0661,84
138.1024,16.4
138.1783,174.4
138.1832,25.2
138.1921,170.2
138.195,110.9
138.2226,187.5
138.3288,41
138.3606,301
138.394,278.1
138.4,356.6
138.4184,17.9
138.4609,379.7
138.5086,165
138.5219,641.3
138.6084,88.5
138.6499,843.8
138.7107,719.2
138.7153,200.8
138.7313,193.7
138.7381,44.8
138.7965,18.4
138.802,114.4
138.8096,157.7
138.8671,785.5
138.8852,271.5
138.9032,18.6
138.9065,1314.9
138.9359,42.5
139.0944,101.2
139.106,285.6
139.1183,87.7
139.147,304.5
139.2025,314.8
139.236,70.6
139.3311,282.8
139.355,372.3
139.3838,52.6
139.3968,308.3
139.45,210.6
139.488,396
139.4941,487.2
139.5013,52.5
139.6034,768
139.6398,71.9
139.6439,265.9
139.6629,140.4
139.738,614.9
139.7596,42.9
139.7904,77
139.8051,169.9
139.8165,131
139.824,52.1
139.8724,21.7
139.9116,70.6
139.9298,89.9
139.9439,592.6
139.951,352
139.955,138.3
140.0162,1188.6
140.0682,4477.5
140.1148,526.3
140.1548,76.8
140.1705,213.6
140.1916,63.2
140.2347,17.4
140.3502,655.6
140.3593,82.5
140.422,113.4
140.4512,17.6
140.4607,474.1
140.4739,142.8
140.4953,237.5
140.5123,747.5
140.5678,54.2
140.5768,131.1
140.5811,216.1
140.6712,120.5
140.6888,302.7
140.7303,283.5
140.7611,46.7
140.7831,93
140.816,212.8
140.8712,432.3
140.899,88.7
140.9036,794.9
140.9198,85.9
140.9326,74
140.9432,21.6
140.968,44.4
141.0004,34056.4
141.015,237.9
141.0247,1044.3
141.0334,77.8
141.164,879.7
141.1738,168.8
141.2058,76.6
141.2089,199
141.2533,52.9
141.2559,304.9
141.2927,40.7
141.3002,101.9
141.4294,21.2
141.4498,145.2
141.4549,42.8
141.4799,86.7
141.494,63.8
141.5031,186.6
141.5378,341.3
141.587,495.1
141.6129,21
141.6306,65.8
141.6336,396.6
141.6711,184.1
141.6994,375.1
141.7089,152.2
141.7236,306.7
141.7558,21.2
141.8091,725.2
141.8263,43.5
141.8579,37.5
141.8876,63.5
141.9141,244.6
141.9237,152.5
141.9254,21.7
141.9346,664.8
142.0038,763
142.0169,50.8
142.0432,105.6
142.05,123.2
142.0837,39.7
142.097,153
142.1373,289.8
142.1414,470.1
142.2201,16.3
142.266,226
142.2666,216.5
142.2717,274.6
142.2737,144.6
142.3466,102.3
142.3606,355.4
142.3687,42.1
142.39,467.2
142.422,337.2
142.469,108.8
142.5193,17.4
142.597,59.5
142.7512,17.1
142.7568,566.7
142.7953,91.8
142.9001,51.5
142.9389,328
142.9457,124.3
142.9775,170.8
142.9962,355.1
143.019,644.9
143.0553,76.3
143.0727,49.4
143.0815,1019.9
143.1929,391.6
143.2212,21.4
143.2975,346.8
143.3025,48.5
143.3226,658.3
143.3622,42.8
143.3769,249.6
143.503,17
143.5831,515.7
143.6092,20.6
143.6236,67.8
143.664,346.7
143.6741,144.8
143.6902,542.7
143.7038,55.2
143.718,215.7
143.7254,57.6
143.7795,301.7
143.7951,60.5
143.8003,49.2
143.8747,356.8
143.9833,35.5
144.0632,18.9
144.0864,131
144.0938,19.6
144.121,21
144.1276,544.4
144.2096,421.5
144.2307,429.7
144.3016,172.7
144.3487,59.7
144.3802,84.7
144.4011,631.3
144.4366,43.7
144.4739,46.9
144.5094,106
144.5134,23.7
144.5222,41.7
144.5791,273.6
144.5861,161.3
144.6032,164
144.6084,84.1
144.6297,115.6
144.6488,667.9
144.7717,80.2
144.8515,653.2
144.8569,309.6
144.906,65.4
144.9214,190.2
144.9291,71.8
144.9598,465.6
144.9808,4766.3
145.2109,67.9
145.2208,38.4
145.2639,113.2
145.2702,765.8
145.2869,206.7
145.3038,170.9
145.3196,48.6
145.336,17.4
145.3782,747.2
145.3817,153.3
145.3846,50.3
145.4205,162.2
145.4476,203.7
145.5325,18.3
145.642,18.7
145.6514,62.2
145.7116,73.6
145.7405,446.5
145.7832,74.7
145.7917,274.7
145.8291,405
145.8529,179.4
145.8627,115.2
145.8924,464.5
145.8962,50.4
145.9374,78.3
145.9521,389.9
145.9558,41.6
145.9599,451.7
145.9727,75.9
146.0125,3274.4
146.0189,12149.1
146.0289,117.3
146.0447,72.4
146.0492,358.1
146.0538,220.9
146.0601,89.6
146.0765,42
146.0811,46.3
146.0833,154.1
146.1294,363.3
146.2545,50.4
146.322,77.4
146.3356,279
146.3924,23.8
146.3985,553.5
146.4177,99.8
146.4288,168
146.4846,19.1
146.4866,55.4
146.5157,48.5
146.5774,49.9
146.6035,40.9
146.6302,19.7
146.6774,254.5
146.7223,212.3
146.7977,422
146.8422,583.4
146.8444,355.1
146.8766,214
146.939,738.7
146.9817,66994.9
146.9936,97.1
147.022,160.3
147.0623,286.6
147.069,59.8
147.0764,41566.5
147.0876,47
147.1128,22261.6
147.1168,1196.8
147.1379,50.9
147.145,606.6
147.1912,57.1
147.2008,848.2
147.2062,202.5
147.2121,82
147.217,65
147.22,61.1
147.3072,105.5
147.3234,59.3
147.3435,48.2
147.366,722.4
147.4136,737.3
147.4751,60.7
147.4859,47.5
147.5121,40.5
147.5568,46
147.692,86.9
147.7088,609.8
147.725,650.2
147.747,39.9
147.8163,77.4
147.8376,174.3
147.8909,564.3
147.9127,68.5
147.9189,70.3
147.938,64.6
148.0482,83.5
148.0691,687.4
148.0797,347.1
148.1044,42.5
148.1283,49.3
148.1409,23.4
148.2511,983.9
148.2565,77.7
148.2627,18.6
148.2952,403.4
148.3119,123.9
148.3224,111.3
148.3539,41.6
148.3672,104.6
148.383,592.3
148.4212,40.6
148.4457,591.7
148.4607,213.8
148.5322,3481.3
148.5479,145.9
148.5794,67.7
148.5838,136.2
148.6344,105.2
148.657,178.6
148.6687,69.9
148.695,73
148.7838,114.7
148.9061,427.4
148.9145,167.4
148.931,326.7
148.9611,1185
149.0025,23.2
149.0186,2187.7
149.0233,7919.6
149.0445,25.2
149.0472,441.5
149.0789,144.1
149.1324,63.8
149.2026,617.3
149.2616,129.2
149.2914,17.5
149.328,91.7
149.3505,514.1
149.3763,81.4
149.3973,43.2
149.3994,245.9
149.42,263.3
149.4665,217.4
149.4761,774.7
149.5029,63.7
149.5133,90.5
149.5771,690.5
149.6138,38.9
149.6698,54.1
149.6906,290.2
149.6999,45.5
149.7036,58.9
149.7631,93.3
149.8679,452.3
149.8712,187.1
149.878,82.4
149.8883,42.4
149.9928,3615.7
150.0137,1896.4
150.0263,193.6
150.0725,375.9
150.0992,98.4
150.1768,47.6
150.1838,562.2
150.2628,273.2
150.324,79.5
150.3334,18.6
150.3402,105.3
150.3528,551
150.388,16.5
150.4415,135.7
150.46,746.3
150.4654,460.4
150.4708,195.7
150.481,103.7
150.5633,890.7
150.569,64.5
150.6366,120
150.6725,80.6
150.6749,712.1
150.6959,73.7
150.785,45.6
150.828,165.4
150.8426,69.2
150.8494,71
150.9768,34089.3
150.984,69.3
151.0478,4257.4
151.1048,93.8
151.1137,753
151.1238,246.9
151.1936,138.8
151.196,179.4
151.2167,64.2
151.2441,39.6
151.2997,114.1
151.3114,65.9
151.3207,776.3
151.3483,37.8
151.3509,141.3
151.3749,417.9
151.3966,103
151.4687,50.1
151.4998,222.6
151.5161,123.3
151.5247,477.8
151.6042,187.6
151.61,38.9
151.6716,161.6
151.7465,44.8
151.8277,487.3
151.8602,23.2
151.9766,261.8
151.9803,547.7
152.022,13846.4
152.0319,1430.5
152.1719,46.1
152.2108,122.7
152.2653,62.1
152.3016,49.9
152.3249,494
152.468,177.8
152.5114,604.8
152.5187,42.9
152.6416,18.9
152.66,47.9
152.6616,196.3
152.8188,129.8
152.8671,177.8
152.8805,54.5
152.8981,74.3
152.9302,49.8
152.9403,24.6
152.9467,216.3
152.9747,901
153.0051,384.3
153.0337,93
153.0571,223.6
153.0853,75.4
153.0987,65.9
153.1068,359.7
153.1454,600.2
153.1901,70
153.3445,817
153.3857,66.5
153.4649,45
153.4866,420.2
153.4909,98.6
153.5297,123.3
153.541,43.9
153.5958,356.8
153.7261,92.9
153.748,191.2
153.7821,323.5
153.7867,17.8
153.8073,44.3
153.8437,293.1
153.8989,96
153.9076,62.6
153.9434,17.3
153.9946,491.5
154.0111,393.2
154.02,858.1
154.0265,758.6
154.0421,56.3
154.0591,1106
154.1652,829.3
154.196,45.4
154.3628,65.2
154.4009,53.9
154.4209,422.3
154.4374,300
154.4428,449.8
154.4487,64.1
154.4652,65.8
154.4926,714.2
154.5303,285.4
154.5332,18.7
154.5776,466.5
154.5883,963.6
154.6733,64.2
154.6923,149.3
154.8001,641.9
154.8549,869.1
154.8916,42
154.9074,26.8
154.9218,113.6
154.9418,38.4
155.0428,574.1
155.0494,107.9
155.0539,2969.7
155.0645,104.5
155.0789,621.7
155.1074,65.8
155.1631,60.1
155.2022,67.9
155.227,58.9
155.2361,69.4
155.2578,122.6
155.3872,913.6
155.4254,67.5
155.4895,61.1
155.5411,354.2
155.5437,176.5
155.563,55.4
155.6013,94.5
155.6246,480.5
155.6669,88.7
155.7051,509.3
156.0106,348.3
156.0258,308.8
156.0422,4971.5
156.0467,845.1
156.0539,91.3
156.0573,28.7
156.0768,48195.7
156.1137,636.6
156.1267,58.2
156.2216,495.4
156.2696,70
156.2954,338.1
156.366,54.2
156.472,49.4
156.4841,46.4
156.5009,43.7
156.5046,761.1
156.5122,113.5
156.6154,40.1
156.6595,259
156.7196,20.9
156.722,548.7
156.7507,93.1
156.8381,96.2
156.8557,35.7
156.9398,45.2
156.9866,441
157.0246,168.9
157.053,83.3
157.0568,510.2
157.0649,72.7
157.0971,56
157.1461,725.4
157.1642,131.2
157.1774,70.7
157.1869,357.1
157.2651,186.3
157.3125,553.6
157.3281,95.6
157.4436,276.9
157.5746,98.7
157.6236,396.6
157.6301,1009.2
157.6674,195.2
157.7261,99.3
157.9136,49.3
158.012,69
158.0271,9329.1
158.0292,266.7
158.033,427.4
158.0454,93.1
158.0726,46.6
158.1465,749.1
158.1858,417.1
158.2221,44.3
158.2451,510.6
158.3303,103.7
158.3377,312
158.36,251.8
158.4341,699.8
158.4476,63.6
158.5503,236.1
158.5788,112.3
158.6316,60.6
158.6442,38.2
158.6461,107.8
158.6697,94.2
158.7748,115.1
158.8208,40.7
158.8296,353.8
158.8352,49.5
158.8384,77.3
158.858,59.3
158.9563,16.8
158.961,148.7
158.9641,6982.8
158.9965,8327.3
159.011,88.7
159.0178,758.7
159.0303,158.7
159.0714,51.2
159.0915,26.9
159.1164,586
159.1213,58.2
159.165,18.2
159.3124,59.2
159.3561,277.2
159.384,646
159.4548,37.2
159.4819,67.2
159.4863,85.5
159.5038,274.9
159.5261,698.4
159.5639,117.3
159.5673,58.6
159.5783,66.9
159.6711,358.6
159.7145,135.1
159.734,454.6
159.7368,23.3
159.7494,499
159.7854,83.7
159.8055,367.9
159.8295,262
159.833,284.9
159.8371,18.3
159.8602,63.5
159.9296,48.9
159.9505,84.6
159.9714,251.6
159.9877,222.8
160.0039,414.1
160.0229,58
160.0286,72
160.0307,60.9
160.0345,12971.4
160.0376,36.2
160.0526,166.8
160.0605,256531.8
160.0645,496.8
160.165,105.5
160.1715,807
160.2527,45.8
160.2565,108.1
160.2638,127.1
160.2714,47.5
160.2928,40.7
160.3235,46.8
160.3746,329.9
160.4214,938.6
160.4399,92.5
160.4457,164.6
160.4949,251.9
160.5231,512.1
160.5865,177.2
160.6486,718.9
160.7125,19.6
160.7232,202.9
160.728,51.9
160.8071,610.7
160.8328,149.3
160.8413,16.9
160.9201,46.6
160.9223,43.9
161.0575,159.8
161.0639,11825.5
161.1144,19.1
161.1326,584.5
161.1348,39.6
161.1436,53.1
161.1718,741.3
161.2065,245
161.2645,81.9
161.3124,166.2
161.3164,55
161.34,455.3
161.3633,609
161.4111,186.8
161.4153,319.6
161.4299,495.2
161.4572,121.1
161.4972,172
161.5019,98
161.5094,252.9
161.5464,300
161.5549,802.8
161.5638,40.9
161.593,198.9
161.6015,16.8
161.682,186.9
161.722,785.8
161.7552,38.4
161.84,815.7
161.9352,157.7
161.9426,418.4
161.9566,152.4
162.0502,7803.6
162.0647,731
162.0784,17.5
162.0983,47.5
162.1415,43.9
162.2729,225
162.3305,21
162.3784,342
162.3961,81.1
162.4136,19.4
162.4733,19.5
162.5939,77
162.6261,358.8
162.6645,64.7
162.9557,3867.1
162.9683,1126.8
163.0156,33.2
163.0392,26.9
163.1382,38.2
163.1485,128.5
163.1619,130.4
163.2033,20.3
163.325,472.7
163.3967,472.7
163.4052,81.6
163.4142,390.2
163.4429,83.9
163.4489,163.1
163.4527,83.4
163.4835,227.1
163.5324,58.5
163.5561,356.5
163.5987,370
163.6113,387.5
163.6465,879.4
163.6501,170.1
163.6585,90.3
163.6672,16
163.6894,433.4
163.7483,917.4
163.7592,185.3
163.7889,699.7
163.8586,288.7
163.873,59.9
163.923,150.6
163.9888,19.1
164.0083,163.4
164.0186,21.8
164.0296,4991.2
164.2301,40.8
164.2697,120.3
164.2798,44.9
164.288,50.6
164.3039,39.4
164.3944,173.9
164.4087,179.4
164.4517,37.8
164.5566,619.8
164.5589,136.5
164.5817,199
164.6071,72.7
164.6267,627.5
164.6401,51.6
164.744,705.3
164.7791,663.1
164.8266,178.8
164.8762,491.2
164.9206,876.8
164.9301,6624.6
164.9352,1240.3
164.9726,46.6
164.9925,1369.9
164.9946,433.3
165.0151,162.3
165.0182,89
165.0261,203.5
165.0334,174.6
165.0613,38.3
165.0912,675.9
165.097,227
165.1351,70.2
165.1976,404.4
165.22,869.9
165.2224,41.9
165.364,543.7
165.4004,545.7
165.4323,112
165.5346,43.9
165.613,102.2
165.631,140.4
165.679,45.3
165.6942,58
165.7768,172.9
165.7916,477.2
165.8952,40.9
165.901,485.9
165.9645,49.4
165.9769,18.5
165.9789,421.6
165.9879,828.9
166.0592,120.3
166.084,1609.9
166.0901,408
166.1624,70
166.2744,84.2
166.2857,136.4
166.2966,36.4
166.3021,167.1
166.3092,83
166.3949,820.6
166.4047,235.7
166.4673,396.4
166.4893,52.4
166.495,76.4
166.555,19.4
166.5999,100.1
166.6112,47
166.7285,744.8
166.7533,214.4
166.8128,72.6
166.927,120.4
166.9383,445
166.9508,14532.4
166.9779,239.8
167.0218,5760.4
167.0575,182.2
167.0671,87.5
167.1543,124
167.197,93.9
167.2124,105.5
167.2382,17.9
167.3193,130.4
167.3227,142.7
167.4862,70.2
167.5845,40
167.5867,124.4
167.5907,16.5
167.5957,569.3
167.6088,461.4
167.8514,238.1
167.9009,358.7
167.9137,93.1
167.9622,56.5
167.9663,665.3
167.9778,632.3
167.9944,2070.1
168.0058,533.9
168.1061,240.8
168.1509,56.1
168.2955,36
168.3013,87.1
168.3146,40.7
168.3769,306.2
168.3913,287.6
168.4585,329.3
168.4849,310.7
168.4883,17.9
168.5072,70.4
168.5165,101.3
168.5879,245.4
168.626,276.6
168.7277,282.3
168.7318,46.8
168.8059,79.9
168.8099,142.4
168.8382,74.2
168.8685,447.3
168.8753,40.8
168.9007,223
168.9488,1755.7
168.9837,17.2
169.0584,59599.9
169.0649,906.5
169.0948,629.4
169.1385,202.6
169.1606,545.1
169.2107,70.5
169.2698,211.4
169.3946,17.4
169.4324,684.3
169.466,59
169.495,445.6
169.5017,371.6
169.5737,351
169.5873,46.9
169.6376,52.3
169.656,100.6
169.6648,402.8
169.729,175.4
169.7335,51
169.82,150
169.8351,89.8
169.8433,88.9
169.8531,56.6
169.9045,466.8
169.9118,64.4
169.9155,123.1
170.0327,1299.8
170.0618,1471.7
170.0925,17383.3
170.1047,54.4
170.1687,541.7
170.1972,193.2
170.312,82.2
170.4158,36.3
170.4324,163.9
170.549,71
170.5528,68
170.5617,47.1
170.6694,170.4
170.6791,880.9
170.7253,165.4
170.7414,63.5
170.8443,177.5
170.8544,2696.1
170.8713,79.6
170.9383,443.2
170.9592,544.1
170.9746,108.6
171.0177,91.3
171.0294,462.6
171.0384,18.8
171.0535,280
171.1537,94.5
171.1685,171.2
171.2121,54.7
171.2456,114.9
171.2736,125.2
171.2951,131.6
171.5247,173.4
171.5356,51.5
171.5501,463.9
171.6373,472.2
171.7496,49.6
171.7552,898.9
171.8319,412.3
171.8518,349.8
171.8641,50.5
171.9458,162.8
172.0207,48.4
172.0283,1861.3
172.0732,437.5
172.0881,95.3
172.1249,388.1
172.1596,17.6
172.2587,125.1
172.3367,127.9
172.4168,69.7
172.4263,357.5
172.4299,183.2
172.4595,212.1
172.5991,481
172.6265,59.3
172.6341,93.4
172.6867,783.4
172.7137,398.6
172.7158,270.4
172.7418,39.7
172.7576,189.5
172.7889,17.8
172.7961,71
172.8383,100.7
172.8515,992.5
172.861,35.6
172.9029,845
172.9097,17.1
172.9476,431.6
173.0149,135.6
173.0199,525.1
173.0267,509.3
173.0298,477.5
173.0963,65.7
173.1523,46.8
173.1578,46.7
173.166,169.9
173.2184,98.8
173.255,168.6
173.265,51.1
173.2745,168.7
173.2763,48.5
173.2806,263.6
173.3096,119.4
173.3382,81.4
173.4091,216
173.4302,323.2
173.4595,57.1
173.5224,115.2
173.5463,180.5
173.569,19.7
173.574,499.2
173.6193,921.5
173.6852,414
173.7018,55.8
173.7164,93.4
173.7213,320.2
173.7268,84.9
173.7397,254.4
173.7523,69.1
173.835,113
173.8543,157.8
173.927,51
173.9954,344
174.0304,26.4
174.0351,55.7
174.0548,343.5
174.0781,180.8
174.1367,223.8
174.1438,53.8
174.1612,44.3
174.2507,46.1
174.3285,69.1
174.3724,56.2
174.3763,286.4
174.4085,54.9
174.428,53.8
174.4541,39.3
174.5468,356.4
174.5622,46.7
174.5811,21.2
174.6121,92.4
174.6406,113.7
174.7369,19.5
174.7688,110.2
174.8098,89.5
174.831,800
174.938,1679.1
174.9822,64.4
175.0343,4203.4
175.0396,43.9
175.0455,2358.8
175.0577,880.2
175.0605,230.5
175.0723,300.8
175.1129,20.8
175.1191,99520.1
175.1678,67
175.1909,48.5
175.288,274.5
175.301,43.2
175.365,427.8
175.5053,70.3
175.5686,86.5
175.5795,333.1
175.6059,60.1
175.6232,21.6
175.7119,19.8
175.768,113.2
175.7791,56.2
175.7893,84.3
175.8309,18.1
175.9082,246.7
175.9998,168.1
176.0085,8102.5
176.0229,67.8
176.0659,14229.9
176.0928,18.7
176.1032,1199.2
176.1224,2646.2
176.1841,64.5
176.2419,89.4
176.2993,80.4
176.394,50.6
176.425,662.9
176.5006,73.5
176.5584,43.8
176.5738,506.8
176.6995,20.1
176.7127,406.2
176.7205,94.4
176.8037,49.3
176.8248,201.8
176.8276,443.2
176.8928,71.6
176.9447,61.4
176.9497,353.7
176.9885,21.4
176.9923,323.5
176.9977,18.2
177.0249,1127.6
177.0612,2923
177.0845,70.5
177.0872,468.9
177.1123,54.2
177.1146,602.8
177.2425,62.6
177.2671,784.5
177.3717,723.8
177.4525,38.1
177.4946,49.3
177.4988,86.9
177.5331,120.8
177.7615,75.5
177.8116,158.3
177.8436,77.7
177.9436,40.8
177.9642,482.4
178.0088,10070.3
178.0242,5947.6
178.0587,3491.6
178.0651,504
178.067,39
178.1573,90.8
178.1781,187.5
178.1833,70.7
178.349,42.5
178.358,194.7
178.3846,124.8
178.5319,16.2
178.555,512.9
178.5737,116.6
178.634,125.8
178.6927,167.2
178.7793,55.9
178.8372,203.4
179.0849,161.4
179.1333,166.1
179.1388,79
179.1553,42.9
179.2147,177
179.2375,73.7
179.2556,87.8
179.4054,98.4
179.4911,186.4
179.5327,146
179.5351,154
179.5509,214.2
179.5813,223.2
179.6475,47
179.7169,45.6
179.7214,383.7
179.7729,58.1
179.7804,48.3
179.9155,158.9
179.9309,673.9
179.9619,38
179.9646,642.6
180.0036,3681.7
180.0087,440.8
180.0121,87.5
180.0317,396.9
180.0586,355.2
180.259,304
180.3368,383.1
180.4123,59.4
180.4169,155.6
180.4238,86.4
180.4686,180.6
180.6139,45.9
180.7664,118.5
180.7929,51.7
180.8215,80.5
180.8844,42.7
180.8945,1118.1
180.904,6306
181.065,8212.9
181.0808,59.2
181.1481,139.8
181.2246,72.2
181.2479,44.1
181.2599,459.2
181.3233,117
181.3309,55.1
181.3791,648.3
181.4357,64.1
181.5032,173.6
181.5203,255.5
181.6641,396.9
181.6762,72.1
181.7452,95.7
181.7849,45.1
181.8896,54.4
181.9324,21.3
182.0244,229.4
182.0425,41114.8
182.0513,662
182.0802,42.9
182.0992,59.4
182.1346,761.9
182.235,104.4
182.2546,390.5
182.3064,386.7
182.3536,89.1
182.4669,56.9
182.5245,88.6
182.5709,119.5
182.5812,284
182.6262,166.1
182.6353,726.9
182.6428,56.9
182.7211,47.3
182.8064,119
182.8669,47.2
182.8974,100.7
182.9026,77.4
182.9123,118.8
182.9417,375.3
182.9652,21.9
183.0446,2409.6
183.1079,41.7
183.142,142.6
183.1686,627.7
183.1939,151.2
183.1972,371.7
183.267,67
183.2706,19.4
183.4232,494.1
183.4451,250.5
183.4526,77.4
183.4898,828
183.5085,376.8
183.5922,455.8
183.6666,163.4
183.7769,398.1
183.8417,21.6
183.8475,70.9
183.965,70.1
183.9811,248
183.9863,90.2
184.0203,41.4
184.0372,534.8
184.0432,216.8
184.0557,972.2
184.0579,25.4
184.0637,40.7
184.0661,48.2
184.0734,2568525.3
184.0805,42.9
184.0817,51.3
184.0875,26.3
184.0881,29.1
184.1098,643
184.1396,755.8
184.1696,23.8
184.1822,729.6
184.2546,27.6
184.3006,290.8
184.3189,112.4
184.4298,35.3
184.4717,575.8
184.5119,116.4
184.5166,353.8
184.5491,47.6
184.6049,173.7
184.6557,55.6
184.6715,58.3
184.7583,253.5
184.7686,328.7
184.7769,90.7
184.8639,681.2
184.8703,88.9
184.906,77.8
184.9083,461.6
184.929,17.5
184.9737,50.9
184.9832,41.8
184.9941,121.4
184.9995,1358.9
185.0324,70427.9
185.0702,4164.7
185.0768,113154.8
185.1248,38.8
185.17,337.5
185.2006,164.1
185.241,446.2
185.2605,539.9
185.3101,71.7
185.362,44.6
185.4036,17.2
185.448,340.8
185.472,45.4
185.476,69.4
185.5182,50.3
185.5359,83.5
185.757,18.6
185.8145,310
185.8169,330.4
185.8346,94.4
185.8515,19
185.9238,81.3
185.9324,784.4
185.9598,866.4
185.968,35.9
185.9787,84.9
186.0066,46.8
186.0358,571.8
186.0777,15464.6
186.0803,22.1
186.1128,93.2
186.1233,532
186.1992,120.2
186.2393,176.7
186.2615,102
186.2649,176.9
186.2895,105.5
186.382,45.2
186.4491,137.5
186.4571,80.3
186.507,776
186.5455,56.8
186.6677,66
186.6813,781.4
186.6833,53.9
186.7897,136.7
186.7916,44.5
186.8095,439.9
186.8392,447.7
186.9068,794.4
186.9199,203.7
186.9628,358.2
187.0305,3594.3
187.0344,87.2
187.0528,18.4
187.0578,9291.1
187.0715,2039.1
187.0826,220.4
187.147,18.2
187.183,61.9
187.2567,461.3
187.3242,53.9
187.3255,55.3
187.3932,512.6
187.4768,411.3
187.486,78
187.496,41.5
187.5866,91.8
187.6442,59.9
187.6527,481
187.6661,78.8
187.7105,345.3
187.8158,19.3
187.8786,46.4
187.8819,283.3
187.959,284.8
187.9769,67.4
188.0067,694.1
188.0794,786.6
188.1077,390.3
188.2282,59
188.2739,491.4
188.2796,79.7
188.2951,40.1
188.3045,49.8
188.4151,54.4
188.4289,97.4
188.4599,19.3
188.5261,47
188.5511,911.4
188.5587,155.6
188.5994,534.3
188.6389,75.9
188.658,74.2
188.7335,74.6
188.8071,306.7
188.8254,53.4
188.8333,47.6
188.852,78
188.8962,171.9
188.9951,86.6
189.0609,1513.8
189.0667,259.1
189.0872,7102
189.1479,145.3
189.1823,400
189.203,79.4
189.239,51
189.3419,427.3
189.35,441.5
189.3621,18.2
189.3733,43.6
189.413,98
189.4699,99
189.5287,21.5
189.5701,134.4
189.7509,105.9
189.8482,397.9
189.9078,410.5
189.9357,74.6
189.9516,42
189.9632,527.5
189.9961,20.4
190.1465,390.3
190.1824,77.3
190.2157,158.2
190.383,92.3
190.627,71.2
190.631,244.2
190.6767,522.6
190.7049,47.1
190.8061,726
190.8179,370.9
190.8479,283.9
190.9121,1056.8
190.9445,110.6
191.0022,143.5
191.0042,20.2
191.0083,2306
191.0329,109.3
191.0404,73612.3
191.0769,9281.4
191.129,109.1
191.157,56.5
191.1859,175.9
191.2793,45.9
191.3739,66.6
191.4681,48.1
191.4722,464.7
191.5785,43
191.6341,18.9
191.6639,39.4
191.6925,44.1
191.696,45.7
191.7367,344.1
191.7679,69.4
191.7724,62.9
191.798,152.9
191.8085,18.4
191.8242,173.9
191.8443,84.8
191.8527,977.2
191.8655,50.2
192.0011,271.1
192.0193,40.9
192.0399,8844.2
192.0438,639.8
192.0534,275.7
192.1243,501
192.2308,895.5
192.2794,95.5
192.2958,230.5
192.3591,389.9
192.3808,59.1
192.4252,131.7
192.6586,406
192.9047,798.6
192.9577,63.2
192.9719,127.9
192.9805,52.4
192.9944,15.7
192.999,1616.7
193.0348,1471
193.0571,158.3
193.1223,24.5
193.1749,100.8
193.3485,156.3
193.3973,191.9
193.4069,42.2
193.4119,78.8
193.4445,125.9
193.4626,442.5
193.5724,132
193.5891,601.5
193.5932,158.8
193.6118,872.9
193.6698,514.4
193.7823,68.3
193.7987,886.4
193.9042,227.2
193.9091,83.4
193.9123,528.6
193.9145,66
193.9245,413.9
193.9983,671.8
194.005,1642.7
194.0327,4280.9
194.0361,135.3
194.0754,721
194.079,144.4
194.1541,203.9
194.1745,142.1
194.2425,74.9
194.4369,290
194.464,732.6
194.508,17.6
194.5369,291.7
194.5675,384.4
194.583,301.3
194.6886,65.6
194.7131,49.5
194.7681,349.3
194.7922,76.6
194.8596,21.3
194.8769,60
194.8832,47.2
195.0041,214.1
195.0498,74.1
195.0857,430
195.0994,251.3
195.1096,18.3
195.1145,165.2
195.2217,106.9
195.2377,517.4
195.2437,87.5
195.2538,54.1
195.3277,61.5
195.3377,67.5
195.3559,70.4
195.3696,758.6
195.3736,177.7
195.438,52.4
195.4492,698.3
195.4907,181.2
195.5122,97.1
195.5307,298.9
195.6136,42.5
195.6942,46.6
195.7504,654
195.7541,60.4
195.7852,191.3
195.7877,20.3
196.0564,72.4
196.0616,50.6
196.0792,154.8
196.1142,123.2
196.1697,618.1
196.2308,46.4
196.4963,398
196.5575,45.1
196.569,692.7
196.5978,50.2
196.6273,152.6
196.6638,88.3
196.6847,74.5
196.7607,615
196.7843,334
196.7891,440
196.8587,337.1
196.8651,3925.9
196.8682,412.9
196.8716,268.3
196.8751,239.1
196.878,481.5
196.9217,50.9
196.9553,66.3
196.9662,223.3
196.9778,84.5
197.0195,42.5
197.0466,74.7
197.1009,1011.1
197.1328,99.9
197.1428,753
197.2068,57.8
197.2359,423.5
197.2533,396.4
197.2583,391.3
197.264,42
197.329,60.8
197.363,91
197.3788,64.9
197.4257,463.1
197.5246,22.3
197.615,204.3
197.6308,365.8
197.6389,92.4
197.7476,41.4
197.8315,67.6
197.8423,131.1
197.8696,50
197.9401,345.3
197.959,41.6
197.9785,128.4
197.9854,60.7
198.0067,175.5
198.0267,99.2
198.085,7049.2
198.0891,531.6
198.1535,275.8
198.1691,139.3
198.1785,120.6
198.1855,10484.3
198.2049,233.3
198.2438,75.2
198.3188,380.5
198.3778,151
198.466,73.6
198.5306,310.8
198.6844,115.4
198.716,83.2
198.7504,786.9
198.799,95.5
198.8553,679.1
198.8623,2748.6
198.9038,18.2
198.9738,20.3
199.0149,129
199.0364,1436.6
199.0397,195.6
199.0634,95.5
199.0692,301.3
199.0754,2330.6
199.0803,73.8
199.1588,105.1
199.1888,640.7
199.2183,140.5
199.2694,213.3
199.2948,22.9
199.4397,92.5
199.5405,181.4
199.6188,762.6
199.6798,91.6
199.6883,58.4
199.7357,155.6
199.797,208.5
199.823,247.4
199.9439,147.3
199.9618,718.8
199.9908,21855
200.0408,7012
200.0442,484.3
200.0578,491.4
200.0598,20.2
200.0914,46.1
200.0996,154.9
200.108,6209.1
200.1475,104.1
200.1571,167.3
200.1652,132.6
200.1809,250.5
200.1985,849.8
200.2524,772.3
200.2864,53.5
200.4146,449.1
200.4852,45.2
200.4896,812.8
200.5959,693.7
200.6766,108.9
200.711,127.4
200.7584,1069
200.8416,18.2
200.8552,129.5
200.8755,917.6
200.9496,129.1
200.9601,357.9
201.0127,2343.2
201.0548,757.6
201.069,479.1
201.0872,429.6
201.0935,688.3
201.1006,276.2
201.1235,38.3
201.1642,51.9
201.1786,259.5
201.227,89
201.2908,100.3
201.3126,140.4
201.3176,42.8
201.3672,56.6
201.4207,21.3
201.446,227.7
201.6665,192.5
201.6975,411.9
201.7451,95.6
201.7769,209.9
201.8571,542.9
201.8748,17.2
201.9492,102.8
201.9946,184
202.0093,41.6
202.0142,42.9
202.0476,722.4
202.065,17.8
202.1183,18.9
202.1693,49.5
202.2181,44.1
202.3132,88.3
202.3464,175.9
202.3495,47.1
202.4705,82.7
202.4746,188.7
202.4792,224.5
202.4859,12342.9
202.5004,223.5
202.5139,69.1
202.516,66.2
202.5204,400.2
202.5862,88.7
202.6555,758.1
202.6646,18.5
202.7253,300.5
202.7476,81.1
202.8169,858.6
202.8882,61.9
202.9504,368.3
202.971,817
202.9881,687.2
203.0318,5478.6
203.0527,998298.1
203.0602,386
203.0769,9338.4
203.1445,43.7
203.226,37.5
203.2796,96.6
203.3087,49.6
203.3426,182.2
203.3706,146.8
203.3797,75.6
203.467,105.6
203.4948,200.8
203.6379,44.3
203.7023,621.7
203.7204,184.7
203.7489,88.2
203.7678,48.3
203.813,739.9
203.8739,644.2
204.0245,48530.1
204.0303,169.9
204.0422,1170.8
204.0561,52738.1
204.0629,655
204.087,40.8
204.1233,116.4
204.1375,76.1
204.1525,213.8
204.2165,570.8
204.2274,84.4
204.2576,249.2
204.3278,266.2
204.3432,54.4
204.3661,994.3
204.3724,313.3
204.3931,45.4
204.4225,93.3
204.4335,112.9
204.505,46.5
204.627,475.4
204.7088,446.3
204.7635,165.9
204.8287,43.3
204.8704,777.1
204.9602,41.7
205.0022,613.4
205.0271,98.8
205.0332,157.3
205.0569,7075.2
205.0837,53
205.0866,20
205.1154,196.6
205.2535,42.9
205.2732,43.1
205.4246,202.4
205.4952,748.8
205.578,95.2
205.6022,253
205.6717,93.2
205.728,59.4
205.7384,487.7
205.7408,150.5
205.8571,225.9
205.966,308.6
205.9884,21.8
206.0292,51.6
206.0553,2328.4
206.0763,311.6
206.0916,18.6
206.1175,54.7
206.1202,88.4
206.1299,562.3
206.1749,137.9
206.1985,74.6
206.232,19.3
206.2593,211.4
206.2963,422.7
206.31,55.4
206.3462,44.5
206.4096,847
206.4492,69.1
206.5387,111.6
206.5771,84.1
206.6744,60.3
206.7031,815.7
206.7125,453.1
206.7417,346.5
206.7617,120.7
206.8171,374.5
206.894,10129
206.9823,3901
206.985,252
207.0144,52098.8
207.0444,3118.7
207.0508,6585
207.0541,89.9
207.0836,632
207.1769,856.8
207.1818,80.1
207.223,454.9
207.3109,153.3
207.3535,650.5
207.3698,54.5
207.3759,338.2
207.3787,540.2
207.4109,90.7
207.543,19.3
207.6026,41.5
207.6744,82.7
207.6818,89.4
207.6869,17.3
207.749,323
207.7558,699.3
207.7949,505.8
207.809,57.2
207.8355,253.7
207.9335,50.1
207.9757,55.3
207.9907,54.9
208.0139,1118
208.0174,646.3
208.1034,20.3
208.201,931.8
208.2177,34.3
208.2236,404.6
208.6316,659.4
208.7797,124.5
208.8008,59.2
208.8447,736.9
208.8911,5374.4
208.8959,454.7
208.9357,538.5
208.9551,28.7
208.9819,22
209.0097,523
209.0127,940.6
209.1224,18.4
209.1843,92.5
209.3217,216.6
209.3602,98.5
209.3803,108.8
209.3918,740.2
209.5062,66.4
209.5624,544.9
210.712,570.5
210.7472,46.7
210.7935,353
210.8322,241.1
211.0214,20.1
211.028,82.2
211.0332,88.8
211.0519,356.4
211.0566,437.5
211.0608,515.4
211.0691,701.7
211.0865,99.1
211.114,371.6
211.1559,270.4
211.1633,2819.3
211.1703,28627.9
211.173,23108.1
211.1771,12112.8
211.183,9397.3
211.1864,4601.6
211.1961,112.4
211.2525,18.4
211.2861,16.9
211.2936,63.8
211.3465,71
211.3984,54.1
211.4363,65.5
211.4632,227.6
211.6398,122.4
211.7544,809.5
211.7594,794.3
211.7636,53.4
211.7679,56.6
211.8028,62.6
211.8691,38.2
211.9629,935.9
211.9989,39.1
212.0252,69.7
212.0542,52.4
212.074,140.9
212.1354,106.3
212.2529,60.1
212.2838,696.4
212.3713,582.5
212.3872,111.9
212.5883,51.8
212.6435,392.2
212.7089,254.5
212.7281,461.2
212.7433,17.7
212.7474,207.7
212.7536,807.5
212.7776,22.6
212.7838,214.3
212.8393,1671.6
212.8537,46.5
212.978,1142.2
213.0267,811.2
213.0548,1469.7
213.0683,1267.2
213.0752,503.6
213.2388,326.2
213.3523,106.2
213.5589,75
213.5942,927.4
213.6086,47.1
213.6922,44.9
213.7466,268.1
213.7924,148.4
213.8318,163.2
213.9052,81.1
213.9153,377.1
213.9306,854.4
213.962,25.6
213.9847,270.4
214.0136,48.1
214.0176,81.8
214.0262,799.3
214.059,10921.1
214.0701,56.6
214.0898,1692.6
214.126,185.4
214.1304,485.9
214.1398,20.8
214.1856,56.2
214.189,49.4
214.2242,72.7
214.2489,89.6
214.258,146.4
214.3242,136.7
214.3276,291.1
214.3932,90.2
214.4633,81.5
214.5906,837.2
214.7399,115.3
214.743,48.4
214.8097,66.7
214.8363,950.1
214.9178,92.7
214.9558,187.5
214.9871,235.1
215.0709,55.6
215.0932,99.7
215.1456,416.2
215.1729,36.1
215.1788,199.8
215.1976,54.1
215.3146,41.3
215.4471,117.4
215.4871,52.2
215.5017,543.7
215.6145,53
215.6205,104.8
215.6736,148.7
215.6888,409.9
215.7059,95.4
215.7855,17.4
215.9887,51.6
216.0148,5628.6
216.0178,1166.5
216.032,76.4
216.0564,551
216.1044,19.8
216.1787,195.3
216.2129,56.1
216.2254,160.7
216.2314,195.3
216.4023,66.7
216.4122,20.6
216.4529,443.7
216.5508,18.8
216.576,590.9
216.6541,107.1
216.6975,18.8
216.8533,698.6
216.9013,18
216.9229,29315
217.0347,153.9
217.056,59.8
217.082,48.8
217.1138,187
217.1408,46.1
217.2403,415.3
217.2752,75.9
217.2761,67.3
217.5986,64.6
217.6797,49.8
217.7148,71.7
217.739,109.4
217.7785,549
217.7896,437.1
217.832,179.6
217.8518,128.4
217.9718,113.1
217.996,395
218.013,399.1
218.0216,750.3
218.0488,63.4
218.0678,154.6
218.1517,51.6
218.1735,22.1
218.1969,478.9
218.2021,212.6
218.2454,37.3
218.3216,137.1
218.3671,155.9
218.4259,233.7
218.5659,242.7
218.6289,95.7
218.705,46.1
218.7136,53.3
218.7411,39.3
218.7435,489
218.7918,173.9
218.8445,115.2
218.889,372.9
218.92,9392.2
218.9796,465.9
219.0176,1014
219.022,506.8
219.0267,1224283.8
219.0349,614.2
219.0603,791.3
219.0647,789.7
219.0773,73.3
219.0831,6548.7
219.0934,52.1
219.1509,18.4
219.1886,126.6
219.2472,429.8
219.4201,104
219.5344,131.2
219.6342,53.7
219.7084,22.4
219.7786,369.5
219.8666,747.7
219.924,46.9
219.9472,435.7
219.9711,429.5
219.9822,113.5
219.9986,1463.4
220.0166,237.8
220.0301,62949.9
220.0371,911.3
220.0671,3501.8
220.1472,143.3
220.1675,462.5
220.2543,808.3
220.3108,57.3
220.3628,44.2
220.4391,197.6
220.5269,109.3
220.5777,44.9
220.5997,75.3
220.6162,18.1
220.7147,173.5
220.7195,348.3
220.8606,243.5
220.8802,160.5
220.9349,41.1
220.9806,165.3
220.988,182
221.0248,74933.9
221.031,8518.6
221.051,1314.6
221.0849,443.6
221.1313,391
221.171,20.1
221.2296,138.1
221.2377,117.2
221.43,71.1
221.5737,18.7
221.6207,93.3
221.6439,124.8
221.8345,18.8
221.9208,417.5
221.9563,158.4
221.9607,54.4
221.9829,529.1
222.0282,1935.7
222.0333,194.6
222.0726,561.9
222.12,934.4
222.2227,74.1
222.2495,19.1
222.2783,464
222.319,447.3
222.3247,88.9
222.3348,136.8
222.3873,129.7
222.3965,99.4
222.5648,16.9
222.6078,428.7
222.673,131.1
222.7877,18.1
222.8174,213.9
222.868,12079.5
222.8796,393.1
222.8885,592.3
222.9187,568.1
222.9368,171.3
222.954,57.5
222.9883,5561.5
222.9926,969.2
223.0365,594.5
223.039,150.4
223.2645,95.9
223.564,110
223.6335,307.7
223.6935,421.1
223.7749,121.4
223.868,785.4
223.925,42.7
223.9532,39
224.0296,4223.6
224.0894,53.5
224.0977,72.6
224.1345,636.2
224.138,134.8
224.2296,59.2
224.2711,159
224.2721,159.1
224.3956,94
224.4542,85.3
224.5578,191.4
224.6485,425.2
224.7688,770.3
224.7886,538
224.8651,8159.9
224.9331,210.8
224.9416,76.7
224.9542,678.3
224.9626,42.1
224.9683,119.1
224.9728,183.8
225.0268,128.4
225.0549,35196.9
225.0649,104.8
225.0852,153.7
225.093,46.8
225.1677,122.2
225.1843,86.3
225.2461,16.1
225.266,43.7
225.4053,519.1
225.4161,94.2
225.486,410.6
225.5512,969.5
225.6775,156.8
225.6944,52.6
225.7124,84.6
225.7872,157.5
225.8319,132.6
225.8815,98.6
225.9397,60.4
225.9481,708.8
225.9522,30.5
225.9832,46.6
226.0019,20.5
226.0065,543.4
226.0243,4660.5
226.0452,4176.5
226.0582,160.8
226.1828,171.1
226.2158,291.7
226.253,45.6
226.424,84.4
226.5126,327.2
226.6146,545.1
226.6578,124.4
226.7302,94.6
226.7415,56
226.8077,19.7
226.8519,115.3
226.8551,45.9
226.9516,19409.5
226.9695,105.9
226.9823,199.2
226.9887,48.7
227.0022,36.6
227.0341,2515.9
227.0514,361.4
227.07,55.9
227.0793,935.7
227.0867,181
227.1005,50
227.1909,386.7
227.1926,257.8
227.1938,101.7
227.2109,60.2
227.2132,18.4
227.2679,20.7
227.2897,66.5
227.3729,250.9
227.4885,55.1
227.6074,336.8
227.8987,47.1
227.967,51.9
228.0004,228.6
228.1006,114.4
228.1854,482.4
228.2818,17.4
228.299,160.2
228.3514,52.7
228.3732,579.6
228.3885,282.4
228.4057,71.1
228.4306,166.7
228.4403,624.5
228.5267,462.2
228.5784,79.4
228.6188,308.2
228.6381,123.7
228.7478,99.3
228.8608,362
228.9657,491.6
229.0195,123.2
229.0351,46.5
229.0672,53.3
229.0805,298.6
229.1281,129.5
229.1545,322.4
229.2074,18
229.2478,666.9
229.2854,55.4
229.3173,17.8
229.377,91.4
229.4115,86.7
229.5097,599.3
229.5434,689.5
229.5713,104.1
229.6792,266.6
229.914,637
229.9444,339.8
229.957,172.8
230.0332,141.8
230.1813,104.9
230.1853,784.1
230.3709,380.2
230.416,174.9
230.557,132.1
230.6544,92.1
230.8124,97.2
230.8675,309
230.8773,583.3
230.918,271.5
231.0559,1995.8
231.0742,378.4
231.1886,190.6
231.2421,177.7
231.2598,431.5
231.2807,69
231.3588,202.3
231.4,36.5
231.4075,70.1
231.4695,112.9
231.5616,125.8
231.6266,44.6
231.6445,44.6
231.7563,156.9
231.9952,241.7
232.0222,22.5
232.2553,807.7
232.3066,92.2
232.3459,799.7
232.4461,86.8
232.5318,92.5
232.5605,53.2
232.6,93.4
232.63,128.1
232.8968,31880.3
232.9499,129.5
232.9857,3900.2
233.0511,11304.3
233.0678,107.4
233.0791,106.4
233.1019,52.2
233.1071,527.4
233.1134,141.8
233.1749,971.8
233.1981,126.3
233.2492,20.1
233.3702,47.9
233.4317,719.9
233.5668,785.4
233.6802,102.1
233.845,83.5
233.8571,224.3
233.8665,98.8
233.9035,343.8
233.9249,79.4
233.9428,37.5
233.9543,396.3
234.0031,116.3
234.0258,109
234.2161,94.4
234.2553,144.6
234.3015,18.9
234.3928,158.1
234.4002,160.7
234.4346,814.5
234.4451,383.1
234.5167,245
234.5215,44.3
234.6012,838
234.704,47.8
234.8938,7687
234.9365,957.6
234.96,42.9
234.9818,3655.8
234.9958,91.5
235.0267,98.8
235.0364,925.7
235.049,88.9
235.057,2121.6
235.0663,1364
235.0779,176.6
235.0927,23027.5
235.2115,137.3
235.3483,109.6
235.4401,1069.9
235.4965,166.5
235.532,298.9
235.7108,572.5
235.7525,115.7
235.7862,244.8
235.8353,99.7
235.8388,45.1
235.9013,59.4
235.903,60.7
235.9041,53.5
235.951,180.9
235.9918,113.8
236.0412,3859.8
236.0718,33217.9
236.0838,58.5
236.0961,881
236.1379,43.1
236.2022,44
236.2275,452.4
236.2524,374.1
236.2776,42.5
236.3177,58.4
236.3861,439.1
236.4347,232.6
236.4425,286.9
236.5065,99.5
236.5525,63
236.5604,87.9
236.5871,57.2
236.5958,57.3
236.653,19.4
236.6889,324.2
236.6943,115.6
236.7315,194.3
236.7335,162.2
236.8562,45.5
236.8868,483
236.9408,72.9
236.9542,94.3
237.0519,49.7
237.0753,1933.2
237.0935,61
237.1613,20.3
237.2352,194.7
237.2517,190.9
237.4025,720.8
237.4971,731.1
237.5411,16.8
237.5859,140
237.6386,47.4
237.7941,910.9
237.8956,548.8
237.9288,81.9
237.9432,175.3
237.9806,388
238.0556,166
238.0675,328.2
238.2501,899.4
238.2637,45.1
238.3706,168.6
238.3854,261.7
238.4317,38.5
238.5932,165.8
238.7883,90
238.8288,824.8
238.8419,3963.6
238.8661,59.5
238.8846,25.7
238.943,45
239.0353,103.4
239.0471,49.4
239.0502,397.4
239.0641,569.1
239.0683,1444.2
239.2232,179.1
239.364,633.5
239.3746,16.3
239.5585,38.5
239.6261,88.5
239.6344,106.3
239.8179,323
239.8366,207.2
239.9271,449.3
239.9911,77.5
240.0034,4125.1
240.1003,605.5
240.1828,889.4
240.2357,72.8
240.2415,87.7
240.2765,196.2
240.3636,662.6
240.3676,65.7
240.6085,47.4
240.6189,652.8
240.6404,97.2
240.6581,56.4
240.8002,103.2
240.8387,1394.4
240.9866,100.5
240.9926,96.1
241.1028,108.4
241.1929,235.4
241.2987,183.9
241.3186,156.8
241.3441,59.9
241.4212,238.2
241.4452,59.3
241.4973,66.7
241.5705,18.2
241.5968,802.4
241.6914,684.3
241.9311,777.1
241.9795,110.5
241.9984,502.3
242.0051,18.2
242.0192,2810
242.2321,44.6
242.5411,61.7
242.5507,49.2
242.757,277.7
242.8041,127.6
242.8546,53.3
242.8949,426.6
242.9256,8735
243.0063,45.6
243.0533,8134.5
243.0655,15539.4
243.0739,103.1
243.2386,39.5
243.2716,128.2
243.4427,65
243.6538,258.7
243.6653,121.6
243.6757,45.6
243.7396,302.9
243.7765,62.2
243.7881,48.3
243.7921,228.3
243.8203,59.9
243.8403,279.3
243.8479,205
243.8523,182.7
243.8963,888.9
243.9727,195.2
244.0127,225.4
244.0485,22.5
244.0575,338.4
244.0691,45.5
244.1166,58.2
244.1816,53.2
244.2256,539.6
244.2753,116.3
244.3097,76.4
244.3135,116.3
244.3489,475.5
244.613,322.2
244.6353,22.9
244.6777,102.5
244.6845,557
244.7004,351.7
244.7372,92.5
244.7757,55.2
244.8363,369.6
244.8707,1506.7
244.9238,822
245.0717,576.7
245.1247,208.2
245.3356,39.6
245.3807,92.2
245.4159,226.6
245.6064,125.8
245.6896,62
245.7285,732.6
245.7685,128.9
245.8986,169.1
245.9118,49.2
246.0016,179.7
246.0109,100.2
246.1488,42.1
246.1982,477
246.2412,114.8
246.3625,116.3
246.402,127.6
246.461,388.6
246.4713,74.9
246.5027,380.1
246.5194,42.6
246.7186,403.4
246.7622,205
246.8604,315
246.8854,356.6
246.9124,171.8
246.9357,432
246.9402,718.8
246.9534,22.5
247.0366,87.2
247.0669,1473.5
247.0928,10815.8
247.2466,55.3
247.4341,342.7
247.7258,56.3
247.7522,498.2
247.7808,76.2
247.8027,168.1
247.8144,102.5
247.8759,801.3
247.9492,271.4
248.0961,290.9
248.1242,5043.8
248.1516,47.2
248.2079,67.4
248.333,356.7
248.351,552.1
248.3607,21
248.384,188.6
248.5238,219.7
248.5461,109.2
248.6121,185.4
248.7213,172.4
248.7408,114.6
248.7536,811.3
248.7603,86.1
248.829,45.6
248.8362,60.9
248.8476,39.1
248.8707,7961.7
248.9597,2528
248.9668,17.8
249.0162,291.1
249.0612,6954.1
249.1088,93
249.1279,28.4
249.169,343.7
249.19,86.5
249.2809,420.2
249.3,148.1
249.324,53.4
249.3847,511.5
249.5227,144.2
249.5606,83.9
249.5778,19
249.5945,40.7
249.7701,46.1
250.0003,85.7
250.0098,332.9
250.05,220.4
250.0649,656.8
250.1599,45.6
250.1927,440.5
250.2021,51.7
250.2771,183.4
250.3256,384.3
250.3605,570.3
250.4452,605.1
250.5645,414
250.5807,37.3
250.7196,123.2
250.7414,84.3
250.8362,55.2
250.8677,918
250.9206,1502.6
250.9554,936.7
251.0007,44.6
251.0253,17.6
251.0342,2211.4
251.0977,43.2
251.1271,861.3
251.2966,426.7
251.3679,655
251.3895,42
251.4004,53.4
251.7585,74.9
251.7863,41.9
251.8812,251.4
251.9079,43.8
251.9882,48.1
252.0197,745.3
252.0365,107.7
252.0458,77210
252.2523,360.5
252.2737,158
252.3108,537.1
252.3163,721.8
252.3577,122.3
252.4965,427.6
252.6349,163.5
252.7879,427.7
252.9173,541.8
252.9295,85.2
252.9975,23.7
253.0268,56.1
253.0364,146.4
253.0491,4446.3
253.0561,520.4
253.1751,162.5
253.2264,61.6
253.254,49.2
253.2662,455.6
253.2775,57
253.5146,170.8
253.5571,59.2
253.5865,100.7
253.5961,49.9
253.6864,200.2
253.7241,673.7
253.8019,437.4
253.8159,366.7
254.0438,1671.9
254.1842,187.7
254.279,403.9
254.3023,301.1
254.3214,639.9
254.3503,663.6
254.3561,401.1
254.5036,297.6
254.543,17.2
254.7893,86.6
254.816,1654.6
254.824,4038.2
254.8709,393.6
255.0331,13211.8
255.0382,665.8
255.0465,1424.6
255.1199,103.9
255.1351,37.7
255.1635,451.9
255.166,473.2
255.1743,69.2
255.4136,582.6
255.4981,483.2
255.5251,81.3
255.6105,79.4
255.6904,229.4
255.8934,461.7
255.9124,858.4
255.9273,202
255.9326,76.5
255.9774,934.7
255.9924,82.8
256.0483,62.8
256.0584,44.1
256.0667,45.6
256.0711,97.1
256.0751,118.1
256.1109,47.2
256.1378,81.4
256.1786,49.3
256.3287,175.2
256.4729,195.6
256.4976,53.8
256.578,692
256.6667,259.7
256.699,90.3
256.7368,425.5
256.7531,166.7
256.7863,19.1
256.817,204.5
256.8211,4598.3
256.8452,97.8
256.8747,127.8
256.8759,170.1
256.8822,62.7
256.8969,20.2
256.9291,922.4
256.9621,17.1
256.9736,628.7
257.017,92.8
257.0234,64.3
257.0488,5893.1
257.0651,303.9
257.0747,48481.8
257.1587,491
257.5373,22.9
257.7639,43
257.8849,82.4
257.9371,50.5
258.0164,291.5
258.0303,503.1
258.0743,53.8
258.078,1763
258.1104,12369.3
258.1456,95.4
258.3392,72
258.4984,16.7
258.5777,470.5
258.6106,46.8
258.7941,273.9
258.818,2357.7
258.8996,2524.4
258.9111,93.4
258.9249,184.4
258.9446,127.2
258.9534,307.7
259.0577,111.6
259.1136,111.9
259.1722,232.1
259.1911,569.9
259.5175,289.5
259.5205,429.8
259.5887,357.5
259.7857,823.7
259.908,211.8
259.9603,58.9
259.9871,114.6
259.9903,553.6
260.0167,66
260.0569,629.7
260.0703,18.1
260.2692,342.3
260.3197,103.2
260.365,68.7
260.4828,412.8
260.5069,64.9
260.7194,447.9
260.8504,40.7
260.9359,90.5
260.9492,5790.5
261.0758,67.5
261.1319,168.9
261.2478,376.4
261.2758,133.9
261.4334,61.8
261.4904,68.7
261.4987,25.4
261.5384,84.2
261.7297,473.7
261.7334,342.4
261.7381,557.8
261.8086,98.3
261.8634,225.8
261.9334,191.3
261.9574,71.1
262.012,500.9
262.1594,188.4
262.1953,63.1
262.2515,397.7
262.7545,48.1
262.7622,415.2
262.7982,818.1
262.8194,43.6
262.8515,133.4
262.9461,1133.7
262.9538,52.6
262.994,47
263.0133,356.3
263.0161,438.7
263.1134,637.2
263.1636,251.1
263.1754,19.3
263.2371,21.9
263.3045,170.6
263.3269,20.3
263.4942,19.2
263.5203,620.7
263.5918,107.1
263.6554,47.1
263.7093,96.2
263.713,138.6
263.7196,41.6
263.7602,490.8
263.9183,21.1
263.9654,47.2
263.9947,585.8
264.0027,287.4
264.283,1004.9
264.4157,203.1
264.5918,157.6
264.6314,161.7
264.6991,85.7
264.8447,2075.2
264.8526,3261.2
264.9337,6708.6
264.9831,606.3
264.9888,1019.8
265.0153,249.7
265.0234,558.4
265.0353,4675.2
265.0473,1723.7
265.0645,71.7
265.0957,46.9
265.2169,19.5
265.247,16.7
265.2542,70.1
265.4033,138.9
265.5021,137.8
265.5918,173.3
265.8265,90.6
265.9426,326.8
266.0123,20.4
266.1891,48
266.2281,220.1
266.2626,61.3
266.2759,257.9
266.2831,63.4
266.4044,172.3
266.6868,212.5
266.7183,405.2
266.8112,121.1
266.8497,3186.8
266.8664,55.6
266.8943,1759.8
266.9635,93.5
267.0045,948.3
267.0133,55.4
267.1529,364.3
267.1693,18.9
267.2465,18.2
267.2685,50.3
267.334,149.6
267.3428,69.5
267.4204,85.5
267.5394,119.7
267.6476,1579.9
267.7339,202.2
267.904,104.7
267.914,187.2
267.938,227.7
267.9794,44.4
267.9897,78.7
267.9936,20.1
267.9978,53.4
268.0149,62.9
268.032,79
268.0882,183
268.2495,112.1
268.2572,84.3
268.2821,109.1
268.2977,205.2
268.3301,54.2
268.3349,19.2
268.3724,192
268.7612,420.3
268.7904,830.7
268.8241,47.1
268.8466,541.6
268.8916,1626.6
269.012,81.9
269.0295,287.6
269.0341,427.6
269.0388,265.3
269.0449,24997.5
269.0487,30121.6
269.0765,41.7
269.0857,62.5
269.349,73.2
269.3858,203.7
269.5345,216.5
269.5893,40.9
269.6813,750.7
269.7461,62.7
269.8667,358.5
269.8874,140.8
269.9934,72.1
270.0248,824.5
270.0474,20044.5
270.0654,17.3
270.145,38.4
270.3409,119.9
270.3633,292.3
270.3759,468
270.4924,180.5
270.5819,18.1
270.6258,53.5
270.6421,65.2
270.7214,19
270.7652,70.8
270.7979,2116.1
270.9781,8219.2
270.9976,19.9
271.024,519.7
271.051,1539.5
271.064,61.6
271.0779,1029.1
271.0902,1291.9
271.1071,49.1
271.1667,143.2
271.4004,356.1
271.4116,469.1
271.4192,121.8
271.4623,269.8
271.4851,223.8
271.4913,19.8
271.6192,406.4
271.7281,22.1
271.8384,46.8
271.9416,59.9
271.9815,731.6
272.0209,40.5
272.0432,81.3
272.0806,153.5
272.1781,304.8
272.2023,215.6
272.214,128.2
272.2181,53.2
272.241,139.1
272.2678,521.4
272.3409,128.1
272.3705,398.6
272.4028,49.1
272.4397,92.6
272.4715,797.4
272.5302,119.9
272.5397,18.9
272.795,2632.6
272.8032,670.5
272.8493,46.2
272.8744,173.8
272.9167,94.6
273.0486,2472.7
273.16,163.3
273.2019,222.9
273.3061,114.2
273.3314,639.6
273.3481,933.4
273.4129,110
273.4213,35.3
273.5,478.4
273.591,385.9
273.6024,17.7
273.668,196.4
273.7603,281
273.851,17.6
273.9248,17.1
274.0403,22
274.0689,92.9
274.0928,165.8
274.1852,144
274.2454,97.9
274.3569,49.5
274.3944,44
274.4671,642.4
274.4727,59
274.6826,315.9
274.7783,75.5
274.7919,1794.6
274.8043,54.7
274.9048,18.6
274.9712,124.1
275.0315,1347.7
275.0704,186.4
275.0996,277.3
275.1332,867.7
275.1509,49.2
275.1742,460.1
275.2193,17.7
275.2316,659.6
275.3045,113.2
275.3351,22.5
275.3473,321.8
275.3675,237.3
275.3825,219.5
275.405,184.7
275.4198,91.9
275.4238,38.3
275.4274,36.9
275.6192,58.4
275.6594,773.8
275.6712,66.6
275.6957,221.5
275.8753,141.9
275.912,80.6
276.0034,46
276.0811,44.3
276.0852,20.8
276.1996,24.7
276.2118,36.8
276.5439,243.4
276.564,747.7
276.5996,400.5
276.8075,63.9
276.9233,4847.1
277.0191,385.8
277.0216,344.3
277.1474,460.4
277.3086,479.4
277.4034,939.7
277.4725,180.7
277.5567,18.6
277.7457,42.5
277.8069,784.2
277.8641,934.7
277.8962,83.8
277.9369,108.8
277.9998,38.2
278.0189,403.5
278.1847,21.9
278.3134,40.1
278.3527,44
278.3836,674.3
278.4706,69.8
278.5222,45.5
278.567,19.8
278.7734,891.4
278.9658,66.5
278.9879,202
279.0227,31.4
279.0568,38174.8
279.3209,153.6
279.3737,498.8
279.5228,72.1
279.6904,76.5
279.8408,390.1
279.8572,22.4
279.8662,541.8
279.9981,20
280.0118,140.7
280.0159,240.5
280.0416,128.7
280.0598,1649.3
280.104,123.4
280.1398,78.6
280.1514,107.1
280.1867,362
280.2728,44.7
280.4087,425
280.4403,362.1
280.6788,94.2
280.6832,147.4
280.7055,574.6
280.7488,71.3
280.8227,119.7
280.8269,1352
280.8743,168
281.0225,197
281.0331,480.4
281.0513,137
281.0882,18.7
281.0974,45.8
281.2863,20.9
281.4938,93.2
281.6904,88.6
281.6972,24.2
281.7259,199.6
281.804,19.9
281.8333,56.4
281.9441,197.8
281.9851,170
282.0147,174.8
282.0648,427.4
282.112,35.4
282.301,61.7
282.4951,434
282.4993,895.8
282.727,51.2
282.7555,112.4
282.8239,1626.9
282.8525,57.7
282.8678,518.1
282.8786,851.8
282.8968,857
282.9054,25.5
282.9379,91.6
283.5511,19.3
283.8257,83.4
283.8337,161.4
283.9143,765.9
283.9763,59.6
284.0284,122.4
284.0528,56.3
284.0635,238.6
284.1173,48.5
284.1379,611.1
284.2187,424.2
284.4109,54.2
284.423,242.8
284.5093,20.6
284.5497,381.3
284.5596,50.5
284.7208,75.4
284.752,80
284.8926,168.3
284.9255,802.6
285.0224,445.6
285.0394,170.7
285.0862,17.4
285.13,150.9
285.1601,749.9
285.3701,462.2
285.4063,96.9
285.4826,161.3
285.6312,49.3
285.676,17.5
285.7749,48.7
285.9807,517.6
285.9883,400.2
286.0194,153.3
286.0374,782.2
286.0959,107.1
286.1421,177.3
286.158,182.2
286.2148,188
286.3216,71.2
286.3672,16.4
286.3769,739.8
286.3887,118.3
286.6295,66
286.7458,18.1
286.7651,113.8
286.7721,1679.7
286.9522,2310.3
286.9704,396
286.9986,50.5
287.0111,309
287.0555,55956.8
287.1007,2001
287.1601,301.9
287.2488,56.4
287.256,54.3
287.3768,79.1
287.8947,52.3
288.0588,2531.3
288.0761,229.3
288.0846,107.8
288.1149,37.6
288.1553,4818.6
288.1741,68.8
288.1971,220.2
288.3276,467.6
288.4691,177.8
288.4858,594.7
288.5106,363.6
288.5905,21
288.6613,315.2
288.6973,131.4
288.7688,3033.8
288.7809,89
288.8432,741
288.8537,1284.8
288.8588,1326.6
288.8666,2565.5
288.8754,2727.9
288.8805,2600.9
288.8883,5086.8
288.8938,9557.4
288.8985,10877.5
288.9043,12273.7
288.9082,13881.6
288.9124,15642.9
288.9179,17122.1
288.9247,19061.3
288.9297,16271.2
288.9366,15159
288.9499,10587.9
288.9562,9616.2
288.9609,6899
288.9705,4127.8
288.9793,2321.3
288.9855,560.8
288.9937,240.9
288.9986,173.9
289.007,96.2
289.0618,2012
289.0835,46.4
289.1593,33.5
289.2152,46.7
289.2715,77.6
289.4335,81.8
289.4625,46.8
289.4933,166
289.5991,834.9
289.7598,831
289.8609,259.1
290.0481,18.3
290.0646,49.8
290.1007,73.6
290.1449,38.2
290.1937,59.2
290.2934,77
290.7663,1080.2
290.8553,19.6
290.986,17.7
291.0268,3856.2
291.0482,62.5
291.1022,719.9
291.1427,40.3
291.2784,268.7
291.4605,774.2
291.526,282.3
291.6449,389.4
291.7309,64.7
291.8181,132.4
291.8331,74.6
291.898,86
291.9671,268.4
292.0592,38.3
292.0745,65
292.0802,75.4
292.3215,179.7
292.3434,48.8
292.4849,579.7
292.493,186.9
292.5252,250.6
292.8187,425.6
292.8659,128.1
292.8752,779.7
292.8803,47.1
293.0254,41.8
293.0724,2442.6
293.0984,808511.9
293.179,1295.5
293.2873,43.6
293.2897,43.6
293.3172,63.8
293.4485,93.2
293.4743,85.9
293.6423,59.4
293.7316,75
293.8316,203
293.941,45
294.0054,427.2
294.0363,18.4
294.0857,784.1
294.0954,2762
294.1017,75697.3
294.3063,161.3
294.3248,271.4
294.5444,85.2
294.7195,45
294.8141,67.9
294.846,299.8
294.9196,67.6
294.9343,39.8
294.9458,50.2
294.9609,83.2
294.9906,617.7
295.0209,228
295.0306,630.7
295.1024,6429.5
295.1294,73
295.1948,18233.6
295.2317,163.3
295.2823,134
295.3337,207
295.3389,58.2
295.3556,43.6
295.413,114
295.4589,65.6
295.4688,76.9
295.5339,188.6
295.6762,43.4
295.8055,622.2
295.856,341.8
295.9122,210.6
296.0093,1325.4
296.1062,66.9
296.1525,37.6
296.1978,1232.8
296.2504,82.1
296.3987,82
296.4152,104.4
296.4424,96.8
296.4924,389.3
296.6186,17.8
296.8221,46.6
296.9239,332.1
296.9795,75.9
296.9875,192.3
297.1071,19.5
297.1606,575.4
297.4266,79.7
297.5462,51.2
297.6864,19.1
297.8276,496
297.9039,88.9
297.9794,37.2
298.0053,514.8
298.0424,23219.5
298.0548,390.6
298.1767,869.3
298.2088,49.2
298.2216,17.3
298.4239,142.8
298.5969,91.3
298.7229,129.3
298.7975,734.2
298.9417,63.5
298.9892,383.5
298.9965,53.9
299.0015,45.8
299.0043,46
299.0203,416.9
299.0342,115.3
299.0458,1097.6
299.1396,3518.7
299.2735,361.8
299.3356,411.5
299.4366,219.2
299.4507,121.2
299.5065,38
299.511,43.8
299.662,319.5
299.6846,44.6
299.8081,62.5
300.0382,237.5
300.0489,69.9
300.0755,486
300.1019,22.6
300.1978,791
300.2973,49.8
300.3434,65.5
300.6814,66.3
300.7078,267.5
300.7234,52.4
300.7662,188.1
300.7748,486.9
300.8971,90.2
301.0271,121.4
301.0387,15812.1
301.0559,362.4
301.0664,57.7
301.1006,519.2
301.1412,338
301.1741,248
301.2114,1880.5
301.2207,532.8
301.2305,67.5
301.2546,98.4
301.3948,825.9
301.5619,730
301.8125,477.7
301.9498,430
301.9544,417.9
302.0201,759.9
302.035,88.1
302.0414,653.7
302.0517,19.6
302.0641,4070.5
302.085,105.3
302.0943,101.1
302.12,73.4
302.1518,46.4
302.2709,137.5
302.6851,47.8
302.6965,59.3
302.707,223.2
302.7295,63
302.7676,44.2
302.8294,1535.4
302.9876,125.4
303.0004,353.2
303.0276,23.2
303.0674,327.2
303.0748,3473.5
303.2173,4180.1
303.2293,1093
303.2475,46.1
303.2731,96.2
303.2782,944.3
303.3055,19.2
303.3225,45.7
303.4113,115.1
303.4871,118.5
303.5821,57.3
303.5919,91.4
303.6816,119.4
303.7008,90.6
304.0599,110.6
304.176,535.5
304.1949,247.4
304.2611,287.4
304.333,362
304.4591,206.8
304.5552,199.1
304.6051,59.1
304.7764,102
304.8623,570.4
305.0854,62.9
305.232,538.3
305.29,86.6
305.3253,139.3
305.4635,47.5
305.5094,72.4
305.5138,519.1
305.7233,62.5
305.7815,64.9
305.93,848.7
305.9667,405
306.0146,89.7
306.0331,96.7
306.0955,125.2
306.1795,38.4
306.2299,144.1
306.3297,103.2
306.3505,18
306.401,110.4
306.6858,187.7
306.8563,220
306.9771,586.2
307.1078,328.1
307.1135,116.4
307.1264,236
307.1406,43.5
307.2003,458.9
307.2636,403
307.368,141.1
307.4109,383.7
307.4767,127.3
307.4864,714.2
307.9186,381
308.1685,378.2
308.3795,191.5
308.4603,70.6
308.4954,259.4
308.5828,110.2
308.5981,49.5
308.6225,90.2
308.8178,344.7
308.8418,114.9
308.8791,1984
308.9632,763.2
309.0064,231.2
309.0376,4216.6
309.0471,147.9
309.0827,2214.8
309.2594,19.7
309.4002,53.7
309.4792,39.7
309.5849,123.5
309.8035,395.1
309.8918,19.1
310.0218,490.6
310.0432,471.3
310.0845,561.6
310.3002,41.5
310.4338,178.7
310.632,509.4
310.7455,43.7
310.7952,41.3
310.8762,2216
311.0033,200.3
311.2025,355.6
311.3669,44.5
311.6561,97.5
311.667,127.4
311.8487,49.3
311.9654,102.6
312.107,643.1
312.1413,127.2
312.2534,269.4
312.2717,437.5
312.4601,72.3
312.5834,116.1
312.6081,604.6
312.7855,253.7
312.9135,506.6
312.9796,428
313.0083,481.4
313.1547,18.5
313.2372,17.1
313.2741,24943.1
313.326,898.8
313.3368,141
313.3962,21.2
313.4292,207.5
313.4945,17.6
313.5466,174
313.6809,17.2
313.6853,321.1
313.6926,48.1
313.8922,40.4
314.0147,349.3
314.0561,582.1
314.0908,326.4
314.1839,462
314.2556,890.9
314.2966,114.6
314.3328,108.9
314.4335,91.9
314.5381,394.4
314.5502,121.5
314.66,556.7
314.7137,299.5
314.78,514.4
314.8372,4492.2
314.8645,387.5
314.9992,4162.9
315.0199,158.3
315.0401,222.3
315.048,296
315.0554,8267
315.0694,39827.4
315.0735,19540.5
315.0803,7536152
315.0875,20264.8
315.0964,3985.3
315.1044,1599.2
315.1106,872.2
315.1197,258.6
315.1405,136.5
315.1616,3890.4
315.2595,233.7
315.3239,6427
315.3499,53.6
315.4316,703.3
315.4849,198.3
315.6199,157.5
315.7015,55.3
315.7215,19
315.7726,49
315.8369,115.9
315.9344,918.5
316.053,56.3
316.0682,2562.7
316.0775,39525.3
316.0837,780820.9
316.112,453
316.1371,98.6
316.3175,444.4
316.4216,116.8
316.5029,112.9
316.5549,172.4
316.5765,648.1
316.5849,17.2
316.599,412
316.8573,355.8
316.9896,19.9
317.0565,13812.3
317.0654,4889.2
317.0717,326.9
317.0842,86639.4
317.347,181.4
317.3963,16.5
317.7464,392.7
317.7625,101.8
317.9622,299.7
318.0599,790.5
318.0877,7903.7
318.2503,50.9
318.2925,117.8
318.3123,88.5
318.5511,144.7
319.0894,101
319.1948,43055.4
319.2348,82.5
319.5018,77.6
319.9521,653.7
319.9718,45.8
320.0746,147.8
320.1238,170.9
320.1982,5486
320.2589,2876.4
320.5945,46.8
320.7315,59.9
320.7686,196.4
320.8782,580.4
320.8853,474
320.9088,39.2
321.1636,17.5
321.2104,32953.5
321.2452,117.1
321.2626,97.9
321.2813,438.2
321.3125,363.8
321.3316,801.1
321.4151,697.4
321.5001,52.3
321.7821,44.3
322.009,235.1
322.1124,81
322.1516,179.3
322.1616,43
322.2137,3440.8
322.2327,79
322.2457,89.9
322.5267,338.6
322.655,698.5
322.7049,481.7
322.8119,476.9
322.835,60
322.9162,62.3
322.9263,17.9
322.9328,379.4
322.9611,760.7
322.9819,969.7
322.9882,327.3
323.0206,3294.7
323.0529,135.3
323.2266,1872.2
323.2697,115
323.4635,106.4
323.5146,83.8
323.7022,90.1
323.8562,734
323.8704,747.4
323.9763,41.1
324.0022,1218.6
324.5318,463.7
324.5544,2779.7
324.561,1713.8
324.5661,1654.3
324.5709,2396.4
324.5941,20.9
324.6486,46.2
324.8241,134.6
324.8537,2140.2
324.8623,105.9
325.0567,1684.6
325.2117,6717.2
325.2307,368.3
325.336,823.8
325.3927,155.8
325.4365,441.3
325.578,229.4
325.7707,20.9
325.9873,415.9
326.0047,77.7
326.0196,399.2
326.1052,114.4
326.1332,50.9
326.2186,42.3
326.2617,773.4
326.2707,45.1
326.2831,52
326.3924,71.1
326.5365,287.6
326.6198,89.2
326.7131,792.8
326.8505,1290.8
326.9785,457.5
327.0154,1497.4
327.1207,51.8
327.1463,126
327.1761,19.3
327.2158,69.8
327.2274,10305.6
327.2602,72.2
327.2939,90.3
327.368,97.2
327.4598,613.4
327.5848,521.2
327.6956,211.2
327.7182,64.4
327.8503,21.4
327.8791,499.7
328.2598,60.1
328.2664,126.2
328.444,845
328.4509,279.1
328.4666,83.2
328.5258,937.6
328.599,76.2
328.783,287.2
328.8475,732.5
328.9901,68.7
329.0962,1007
329.1273,88.2
329.1566,589
329.1692,352
329.2196,217.7
329.2818,117.5
329.2886,56.6
329.3253,323.1
329.3405,260
329.3857,82.4
329.4052,66.9
329.5254,516.9
329.5958,42.8
329.6762,655.6
329.7307,47.8
330.059,307.7
330.0683,56
330.0968,737.2
330.1195,145.5
330.225,100.5
330.3654,71.5
330.4043,45
330.5472,22.5
330.718,302.4
330.821,502.4
330.9799,20.1
331.0455,220065.9
331.0543,1224656.9
331.1261,197.6
331.2011,125.3
331.263,151.3
331.3121,114.9
331.3501,52.3
331.3621,58.3
331.5751,53.9
331.5815,58
331.6572,37.2
331.8803,112.8
331.9187,117.8
332.0485,17118.3
332.0576,112094.6
332.1378,738.4
332.238,107.3
332.3747,114.7
332.5597,75.8
332.5751,63.9
332.8483,58.9
332.8642,291.8
333.011,58.9
333.0423,54.5
333.0524,71702.9
333.0581,12304.5
333.0851,368.1
333.2217,535.5
333.302,553.9
333.3676,474.5
333.4574,77.3
333.5643,39.5
333.6313,120.1
333.8414,45.6
333.9029,46.1
334.0401,65.9
334.0558,5310.7
334.0819,79.4
334.0901,139
334.1032,99.5
334.1126,873
334.3503,81.1
334.4702,711.8
334.7433,48.4
334.8643,72.2
334.8773,87
335.0107,405
335.0384,2237.3
335.155,122.6
335.3996,39
335.778,255.7
335.8607,22.8
335.8942,37.2
335.9579,19.1
336.0212,262.5
336.3454,60.4
336.5159,350.8
336.5609,54.3
336.6605,47.1
336.8188,274.1
336.9639,876.8
336.9765,19.9
337.0365,5665.1
337.0498,24457.4
337.0623,749427.4
337.073,161.7
337.2742,9210.3
337.7966,359.1
337.9379,122
338.0512,618.2
338.0657,66792.8
338.115,98.5
338.3236,47.1
338.3422,104.6
338.3834,42
338.4226,42.4
338.5163,394.7
338.7085,329.6
338.8648,84.5
339.0126,38.4
339.0385,8277.3
339.0476,907.6
339.0661,7269.2
339.2624,86.1
339.2897,905.7
339.3843,19.6
339.3985,97.6
339.4442,643.5
340.0434,96.2
340.0638,89.2
340.1775,164.7
340.4128,59.7
340.5023,53.5
340.6435,303.8
340.7265,441.1
340.7612,95.1
340.7928,40.6
341.0558,54.8
341.0976,131.5
341.1056,18.7
341.1429,66.9
341.1854,562.6
341.2743,158.2
341.2942,140.4
341.3058,2073.4
341.3295,629.7
341.3616,91
341.6376,849.6
341.7991,62.4
341.8916,192.3
341.9743,98.2
341.9938,130
341.9965,127.1
342.0157,314.4
342.0298,1471
342.0626,104.1
342.0686,27.9
342.0768,53.3
342.2126,349.4
342.5993,47
342.6411,71.9
342.6832,64.8
342.9062,671.4
342.9191,20.3
343.0048,132.8
343.0693,70.4
343.1257,108
343.1949,8149.1
343.2479,744
343.2546,728.6
343.4526,136
343.7766,106.8
343.9118,62.9
344.0925,724.9
344.1972,47.3
344.3939,237.9
344.4458,417.9
344.4807,77.2
344.5924,187.3
344.713,76.8
344.8341,21.4
344.9243,20.1
344.9352,49.8
345.1055,157.9
345.1924,71.7
345.2026,419.6
345.211,185.5
345.2177,126.4
345.504,530.4
345.5281,696
345.5831,202.7
345.6049,164.2
345.885,54.6
345.9844,1338.8
346.0101,235.2
346.0205,76.4
346.0407,26.1
346.0907,44.8
346.2241,241.9
346.4323,93.4
346.513,41.5
346.5529,46.5
346.764,201.9
346.8964,20.8
346.9268,17.9
346.9418,104.2
346.9892,132.8
347.0178,44.3
347.057,48.1
347.2482,46.4
347.3802,786.6
347.4034,294.2
347.6737,40.9
347.7183,225.4
347.7341,795
347.7599,371.5
347.8014,49.5
347.8374,69.4
348.0625,118.1
348.1841,42.3
348.5244,373.7
348.614,231.9
348.6263,341.4
348.7206,75.8
349.1341,61.5
349.1932,51.4
349.9372,116.9
350.0043,26.9
350.0185,2793.3
350.0995,173.1
350.3308,551.8
350.4882,21.4
350.5962,433.9
350.6862,216.9
350.8163,530.6
350.8983,487.9
351.0857,757.8
351.1143,130
351.1778,19.9
351.2167,45.4
351.2537,229.4
351.3072,922.4
351.3852,18.4
351.4039,69.3
351.5721,115
351.6179,320.3
351.6588,57.3
351.7104,52.1
351.8345,165.3
352.2692,19
352.3866,67.9
352.3978,35.5
352.4842,39.8
352.6951,48.7
352.7331,302.7
352.8124,49.1
352.8378,335.7
353.0273,168244.6
353.0362,262492.2
353.3108,77.1
353.5169,17.3
353.642,21.3
353.6791,317.1
353.7292,174.4
353.9292,39.7
353.9502,41.4
353.992,118.7
354.0305,15060.3
354.0397,22706.9
354.1125,45.6
354.1556,121.9
354.4628,188
354.5599,84.5
354.6479,418.4
354.7062,908.9
354.779,860
354.8951,737
354.9481,17.7
355.012,5273.8
355.0345,16632.6
355.0706,760.6
355.3304,135.8
355.3439,47.1
355.3924,193.3
356.0078,40.5
356.0151,182.3
356.1065,21.3
356.1166,311.5
356.1807,314.9
356.2246,347.9
356.2452,120.9
356.3165,396.8
356.7572,38.6
356.8899,479.8
356.9217,375.4
356.9698,89.7
357.0089,1779.3
357.0198,1219.5
357.2504,19.5
357.3926,398.6
357.4159,52.2
357.4301,101.3
357.6212,52.5
357.6281,763.6
357.6329,89.5
357.6482,143.4
357.7813,55.7
357.9831,332.6
358.0007,69.7
358.0091,28
358.0405,361.9
358.1237,369.2
358.3223,85.6
358.3784,311.2
358.3946,78.7
358.431,839.3
358.4726,418.4
358.4809,20.2
358.4991,294.5
358.5589,22
358.9853,668.3
359.0076,1040.6
359.0317,11281.3
359.0443,418968.6
359.1304,218
359.1729,342.7
359.191,191
359.3275,94.6
359.3686,51
359.4221,58.9
359.4291,44.8
359.4952,56
359.5565,552.8
359.5676,109.9
359.5892,112.4
359.5964,130
359.6024,163.1
359.6095,332.8
359.6219,153.2
359.6448,819.4
359.6718,458.1
359.6873,1686.8
359.7119,686.7
359.7198,708
359.7867,43.1
359.9352,46.2
360.0116,23.4
360.0476,41566.5
360.3255,295.4
360.4665,940.2
360.7111,55.6
360.7753,100.4
360.8325,55.5
360.8667,23.6
360.9248,254.5
360.9435,20.5
361.0205,7073.2
361.0481,2384.5
361.2743,354.6
361.3708,179.4
361.4534,19.1
361.5739,47.8
361.709,303.1
361.7791,128.7
361.9574,63.8
361.9902,232.1
362.0004,22.1
362.0225,53.9
362.0593,227.1
362.2082,92
362.3678,100.7
362.3969,102
362.5262,17.9
362.5435,76.2
362.8393,192.3
362.8989,373.2
362.9203,41.9
362.9316,399.3
363.1423,255.1
363.2627,56.8
363.2797,63.4
363.362,711.9
363.5377,213.5
363.7051,133.7
363.7429,54.5
363.9271,304.6
363.9973,49.4
364.0352,481.3
364.1221,84.3
364.1302,201.2
364.2329,204.4
364.3061,260.2
364.4059,726.2
364.789,17.9
364.8942,1017.8
364.907,410.1
364.9534,293.7
365.0328,585.3
365.0631,78.5
365.1059,536.9
365.1864,57
365.5607,92.7
365.6377,35.9
365.7404,98.2
366.218,20.7
366.3892,115.6
366.5571,45.2
366.6283,70.4
366.6987,53.4
366.8782,720.3
366.9134,876.3
366.9389,95
366.9843,266.7
367.027,102.5
367.121,2213.9
367.3069,42.4
367.5011,312.6
367.5824,38.6
367.6338,56.1
367.7217,109.8
367.7887,65.7
367.9924,157.8
368.1523,98.5
368.2827,149.2
368.3436,21.1
368.449,130
368.7764,305.3
368.7855,75.9
368.8389,41.8
368.993,2561.2
369.0013,27179.8
369.0103,10620.6
369.0468,159.1
369.1938,369.7
369.2503,51.2
369.3521,207.4
369.4806,54.3
369.9112,304.8
369.9629,71.2
370.0048,347.5
370.0175,82.8
370.179,479.6
370.2163,484.7
370.4237,95.2
370.6494,133.8
370.7414,430
370.7669,41.6
370.9563,98.9
370.9991,101.9
371.0071,189.7
371.0586,166.5
371.095,170.3
371.2525,63.3
371.4299,130.3
371.4453,93.8
371.5744,188.4
371.7034,57.1
371.7475,20.5
372.0608,378.5
372.2953,63.2
372.321,111
372.4443,899.4
372.5111,43.8
372.5472,543.8
372.557,44.8
372.6841,47.4
372.7515,99.9
372.8127,18
373.063,174
373.0926,198.3
373.2614,294.2
373.3044,855.8
373.3976,640.4
373.4129,18.8
373.4455,61.6
373.4748,66.9
373.4969,58.3
373.5382,415.9
373.6397,431.6
374.3868,246.7
374.7269,79.3
374.7515,56.7
374.9037,18.7
374.9568,338.5
375.0093,125755.6
375.0182,148505.5
375.0902,56.2
375.1587,94.4
375.4703,39.2
375.517,65.5
375.7248,62.6
375.7328,77.4
376.0124,9490.9
376.0216,12435.6
376.0714,162.2
376.1056,88.3
376.3837,43.9
376.3988,202.6
376.4127,59.8
376.4334,983.4
376.4355,972.1
376.4836,89.7
376.5897,416.8
376.6023,99.1
376.6212,18.5
376.6943,51.6
376.7251,44
376.8241,322.6
376.9943,3290.5
377.0168,7914.6
377.1221,449.6
377.1594,237.1
377.258,80.5
377.2925,60.2
377.5396,60.9
377.6205,57.5
377.6846,52.4
377.8645,353.4
377.9182,279.3
378.0036,115.8
378.2235,116.9
378.3346,191.9
378.7421,205.7
378.7789,46.1
378.9927,595.6
379.0022,59.3
379.1166,195.5
379.3046,49.9
379.3434,89.9
379.3514,78.2
379.3661,144.3
379.419,91
379.4846,453
379.5029,295.1
379.6994,430
379.9983,60.3
380.0127,206.4
380.2393,187.2
380.5934,549.1
380.6171,128.6
380.7358,98.3
380.7946,40.6
380.9037,22.2
380.9518,19.7
380.9893,80.7
381.0139,10495
381.0262,211689.2
381.1148,377.1
381.179,422
381.1982,88.8
381.2267,571.3
381.3718,83.7
381.6544,51
381.9989,133.8
382.0296,14990.4
382.1295,187.9
382.3064,495.6
382.7245,204.9
382.8305,770.5
383.0271,405.3
383.0834,317.9
383.1165,158472.1
383.2805,41.9
383.3795,19.8
383.4225,83.5
383.5659,445.6
383.6137,38.2
383.6762,459.2
383.8214,92.2
383.9573,17.4
383.9653,54.3
384.0078,99.1
384.0839,294.4
384.1198,18687.9
384.2245,62.2
384.7647,507.3
384.9212,48.5
384.9666,395.2
385.1202,1474.4
385.1437,92.4
385.1607,72.6
385.2749,82.6
385.4696,214.7
385.5879,22.6
385.9656,223
386.0217,21.5
386.259,94.6
386.3234,119.5
386.3503,49.8
386.8906,397.7
386.9063,463
387.0028,1918.6
387.3884,66.3
387.6075,150.6
387.6259,43.8
387.6458,293.6
387.8088,140.9
387.8466,56.1
388.0498,41.1
388.1795,175.3
388.3094,784.3
388.3558,20.5
388.4949,151.4
388.6462,231.3
388.7001,41.8
388.7111,397.7
388.8303,106.3
388.8623,163.8
389.19,391.5
389.2074,387.2
389.3198,92.8
389.4296,20.3
389.5465,50.2
389.6028,251.2
389.6231,439.7
389.7733,18.6
389.9621,413
389.974,1902.8
390.0843,167.9
390.1045,121.6
390.1852,45.5
390.249,177
390.273,40.8
390.3639,48.6
390.5511,75.6
390.5805,707.5
390.6323,865
390.7091,798.9
390.7467,427.8
390.799,1461.5
390.8537,20.3
390.8746,708.1
390.9163,406
390.9741,4409.7
390.9832,28407.5
390.9921,17809.4
391.0247,722.7
391.1025,19.5
391.132,46.9
391.2159,89.5
391.5281,20.1
391.7731,105.5
391.9951,406.8
392.2109,41.6
392.3215,88.6
392.3962,667.6
392.4063,178
392.7558,93.3
392.9588,64.3
392.9682,148.7
392.9824,109.7
392.9908,541.4
393.013,46.8
393.0772,133.3
393.1032,139.1
393.1075,136
393.2981,29.2
393.3236,53.5
393.3726,380.2
393.716,580.1
393.8098,935.5
393.9435,19
394.0176,52.6
394.0511,47.1
394.1662,116.5
394.2293,102.6
394.3053,19.8
394.4842,218.2
394.4977,53.5
394.6208,374.1
394.7465,40
394.7932,1116.2
394.9752,91.9
394.9968,21.2
395.0305,136.1
395.2141,525.6
395.4812,188.9
395.4981,113.2
395.5423,19.7
395.7505,351.9
395.7949,704.7
395.9484,194.3
396.2371,83.3
396.7271,38.2
396.8061,111.3
396.8863,858.2
396.9464,87.2
396.9912,112261.5
397.0001,87897.2
397.1495,183.4
397.3024,422.5
397.7497,43.5
397.834,289
397.9076,104.3
397.9319,232.9
397.9945,3358.7
398.0035,3993.2
398.1999,790
398.2166,336.6
398.2419,1986.5
398.3524,145.5
398.6982,454.2
398.7411,1071.6
398.7613,1042.9
398.7768,244.9
398.9762,26
398.9983,2111.3
399.1485,18.8
399.2205,132.2
399.2636,667.6
399.3305,38.2
399.4049,728.7
399.4206,33.4
399.471,395.4
399.4947,281
399.636,183.5
399.7427,455.9
399.7686,141.5
399.8255,68
399.9802,68.9
400.0701,72.3
400.2179,19.4
400.3209,495.7
400.4083,89
400.6825,327
400.7379,722.1
400.8008,437.4
400.9737,86.3
401.0181,44.1
401.1841,116
401.2134,103.1
401.2637,41.3
401.3269,126.5
401.3342,114.8
401.6399,39.5
401.6852,102.7
401.7417,179.9
401.7613,127.5
401.9946,19.5
402.2182,401.8
402.37,126.6
402.5355,372.2
402.6737,17.9
402.7102,210.4
402.7854,569.9
402.8118,50.3
402.8243,901
402.903,58.6
403.0082,157297.8
403.1287,885.3
403.1512,247.6
403.2907,59.7
403.3091,66.5
403.7153,42
403.7309,91
403.802,177.1
403.8638,117.2
403.9063,278.3
403.968,213.1
404.0115,12130.5
404.2131,37.7
404.3339,763.6
404.3787,102
404.4785,403.8
404.6018,413.4
404.6866,484.7
404.7367,38.3
404.7972,366.6
405.0125,749
405.1957,356.8
405.2435,569
405.3772,725.2
405.4916,564.2
405.8339,378.6
405.9476,643.5
406.0393,66.9
406.0624,45.9
406.1396,387
406.3296,1391.6
406.6454,464.3
406.7728,917.6
406.8399,21.8
406.8591,80.9
407.1835,63.9
407.2911,56
407.333,151.6
407.3506,305.2
407.5213,129.8
407.6869,73.7
407.7426,238.5
407.7657,1002.5
407.8325,51.7
407.9088,424.8
408.0813,156.2
408.1408,117.8
408.2176,27.1
408.5423,85
408.7703,2541.3
409.0078,158.1
409.0549,67.6
409.089,192.5
409.1232,46.4
409.2375,85.9
409.2639,262.8
409.5653,86.5
409.6154,70.4
409.6601,129.7
409.702,43.4
409.7344,94.3
409.839,694.6
410.202,323.4
410.2238,66.6
410.4191,448.2
410.5029,828.9
410.6449,37.6
410.7091,47.1
410.7672,564.4
410.819,135.8
410.8556,287
410.9529,38.3
411.0196,38.8
411.1073,59.8
411.2784,356.6
411.438,122.7
411.6552,55.9
411.846,51.2
412.0116,544
412.1181,586.3
412.1314,192.2
412.2674,48.8
412.2775,66.1
412.3216,2637.8
412.4198,42.8
412.453,86.4
412.5003,59.1
412.6981,100.3
412.8393,123
412.8643,52.1
412.88,80.6
412.9183,770.3
412.9652,28912.5
412.9741,15234.5
413.1151,507.9
413.2668,6195.4
413.3249,271.1
413.5055,36.3
413.543,491
413.6633,156.9
413.8464,139.4
413.8597,458.3
413.8699,20.4
413.8854,40.2
413.9037,279.2
414.2701,458.7
414.477,62.4
414.7153,764.3
414.9717,292
414.9974,4952.6
415.037,22.3
415.0814,483.2
415.1049,317
415.1991,22
415.2736,79.9
415.2821,221.3
415.4633,455.5
415.624,45.4
415.6349,204.6
415.6469,62
415.6795,66.7
415.8981,85.9
415.9293,73
415.9732,184.2
416.0268,54.6
416.0981,515.7
416.1353,7789.2
416.2026,62.5
416.2144,6756.6
416.354,71.3
416.7107,443.5
416.7311,387.3
416.7826,277.7
416.8412,630.9
417.0044,535.9
417.0143,20.6
417.0711,81.7
417.1084,122.8
417.1239,90.8
417.2175,47.5
417.5037,887.8
417.5369,555.5
417.5671,59.1
417.6071,180.9
417.6375,160.2
417.6694,416
417.7479,897.2
417.7729,651.2
418.0404,151.9
418.2773,53.4
418.5669,177.2
418.715,503
418.7677,404.8
418.799,542.9
418.8461,39
418.9699,114.2
418.9821,67880.1
419.2019,368.8
419.2552,465.3
419.3972,384.9
419.4121,867.4
419.4966,159.9
419.6244,97.5
419.966,75.8
419.9854,4210.9
420.0113,195.3
420.3059,432.8
420.4505,43.6
420.5036,62
420.5378,483.7
420.7245,223.2
420.7455,341.3
420.7533,39.7
420.8822,858
420.9574,446.3
420.9813,1836.8
421.0025,140.5
421.0319,182.9
421.172,72.3
421.3048,54
421.3624,723
421.607,64
421.9104,63.3
422.2645,396.1
422.3033,28.9
422.3298,394.3
422.452,43.9
422.4618,97.9
422.5025,51.8
422.5428,23.1
422.7468,634.1
422.7721,45.4
422.7985,370.4
422.809,85.9
422.9903,88.7
423.036,228.7
423.1129,75.9
423.2066,19.3
423.8846,49.9
424.7722,39
425.2531,489.8
425.4619,428.3
425.5523,58.4
425.6391,18.2
425.9926,60.5
426.0022,73.8
426.2431,193.7
426.2581,49.5
426.3586,1119
426.4387,40.8
426.7414,604
427.1102,219.8
427.1949,54.5
427.8476,18
427.9767,342.7
428.0133,202
428.0921,70.2
428.1548,46
428.2042,43.2
428.596,345.3
428.7901,178.5
428.8868,303.4
428.9381,2265.2
428.9734,227.9
428.9858,102.3
429.0002,1063.1
429.0128,107
429.0891,450.2
429.3967,43.9
429.428,94.9
429.6311,170.2
429.7475,53.3
429.7589,307.3
429.8965,355.5
429.9625,389.8
430.1395,424
430.2455,23.3
430.381,41.5
430.5123,48.8
430.6168,90.2
430.6251,45
430.6807,473.9
430.7536,411.5
430.8112,981.9
430.8502,57.7
430.9996,600
431.217,1464
431.2774,552.1
431.3001,69.7
431.4774,283.7
431.7012,47
431.9508,45.1
432.0866,40.8
432.2957,170.9
432.3569,582.1
432.8514,412.5
433.0469,58.3
433.0783,134.8
433.1305,953.5
433.3733,90.8
433.4371,49.8
433.513,58.1
433.5559,479.1
433.7587,17.8
433.953,96.7
434.0607,230.4
434.2315,169.6
434.2483,54.6
434.3581,87
434.9561,15033.5
435.0807,52.8
435.099,855.4
435.1268,58.8
435.2979,134.2
435.336,76.5
435.57,815.3
435.6961,846
436.1379,95.3
436.3502,50.9
436.5868,786.4
436.681,202.4
436.9077,124.7
436.9745,103
437.235,113.5
437.2819,51
437.5099,351.4
437.9044,925.6
438.1209,41.9
438.1961,1763.3
438.2059,60.2
438.7538,157.7
438.7797,97.4
438.9305,159.4
438.9515,711.7
438.972,1432.1
438.9848,15953.2
439.2047,87.8
439.3352,61.9
439.3981,176.8
439.5093,113.1
439.5884,145.4
439.6689,131.5
439.8785,57.6
439.8867,79.4
439.9306,20.2
439.9878,576.8
440.0392,921.3
440.7252,727.4
440.9818,2106.6
441.0197,67.1
441.0634,54.1
441.274,77.6
441.2983,169.6
441.5116,44.9
441.5337,57.7
441.6672,386.2
441.6781,39
441.9756,176.7
442.02,138.7
442.0618,63.6
442.1434,440.8
442.302,23.7
442.3588,41.3
442.4739,64.9
442.6132,125.6
443.0355,102
443.0496,342.4
443.1166,264.4
443.1961,48.9
443.2546,960.5
443.5857,99.7
443.6388,43.3
443.8755,476.7
444.1908,749.5
444.2124,122.1
444.5224,80.5
444.5966,66
444.9078,406.2
444.9936,513.1
445.1635,188.3
445.1769,284.8
445.2338,1149.5
445.6689,50.5
445.7134,33.7
445.9769,362.2
446.605,127
446.6439,48.2
447.3053,137.3
447.4742,189.9
447.9128,142.9
447.9471,41.7
448.0439,361.4
448.21,448.6
448.2512,753.3
448.2902,43.3
448.3023,226.9
448.3173,90.5
448.4604,180.3
448.6095,18.7
448.6422,325.6
448.667,412.2
448.9166,458.3
448.9331,1619.7
449.1542,1195.4
449.2238,386.1
449.2511,131
449.3669,59.9
449.8117,44.5
449.9571,89.7
450.029,18.1
450.1578,264.2
450.2113,210.1
450.6403,39.4
450.7545,536.6
450.8299,48.6
450.9294,808.4
451.1494,78.5
451.168,144.2
451.4619,154.8
451.517,113.8
451.5362,521.2
451.9744,101.7
451.9983,50.7
452.1736,615.2
452.4121,126
452.759,39.6
452.9561,18
453.2096,95.2
453.2922,718.7
453.3987,351.1
453.439,101.9
453.4581,83.8
453.8844,17.3
453.957,127.9
453.9687,437.1
454.1083,55.1
454.2863,40.6
454.4042,44.8
454.4337,83.2
454.4815,277.6
454.95,25455.8
455.1774,339.6
455.1895,757.5
455.2123,636.9
455.2782,579.1
455.3782,79.2
455.412,392.3
455.4842,65.6
455.9531,1163.7
456.3737,55.2
456.4166,157.6
456.5621,82.8
456.8602,368.2
456.8786,471.1
456.9472,6357.3
457.0142,62.8
457.1184,179.1
457.2329,7105
457.2619,74.1
457.4157,61.1
457.4252,44.4
457.7786,465.3
457.8183,109.2
458.2064,61.7
458.2373,1477.7
458.3572,58.9
458.6977,554
458.7469,690.8
458.8427,18.1
458.9617,2570
458.9992,19.1
459.1958,124.8
459.2486,332481.8
459.3832,751.6
459.4227,70.5
459.5384,101.6
460.252,67978.4
460.3146,355.9
460.4133,147.5
460.7395,566.7
460.8136,620.2
460.9667,54712.4
461.2063,60.6
461.2558,4731.2
461.3327,171.3
461.4616,44.8
461.4785,474.3
461.5633,557.4
461.6452,216.2
461.6984,395.3
461.97,2514.5
462.0203,60.3
462.0759,108.6
462.1189,302.1
462.1516,158.3
462.2038,149.3
462.2754,107.4
462.3141,125.4
462.8128,133.2
462.9326,20.2
462.9637,14762.5
463.2011,957.7
463.3012,50.6
463.5135,250
463.5536,396.6
463.9674,1225.1
464.0449,66.6
464.2789,19.7
464.3447,399.9
464.3827,45.8
464.4608,822.6
464.5273,132.1
464.9082,51.4
464.9785,5605.2
465.1472,609.8
465.2145,64.3
465.4463,18.8
465.757,43.7
465.9238,68.6
466.0461,102.5
466.0927,66.3
466.1862,46.2
466.3773,347.8
466.501,434.2
466.5749,819.4
466.8141,875.9
466.978,824.9
467.1851,661.2
467.2719,54.8
467.4875,805.3
467.7319,18.2
468.0649,41.6
468.1557,56
468.2352,809
468.2689,361.9
468.3086,1435.9
468.3512,137.6
468.512,90.4
468.5672,99.3
468.8148,419.5
468.8748,22.9
468.9949,382.2
469.0166,50.5
469.0993,111.9
469.1332,38.5
469.1805,226.6
469.2174,152.3
469.3941,89.1
469.5734,535
469.6479,558.6
469.7146,899.5
469.8435,380.7
470.4223,444.1
470.6756,57.3
470.6992,83.8
470.8423,85.1
470.9239,13136.5
470.9842,50.2
470.995,1854.1
471.3028,124
471.3783,58.1
471.8778,942.3
471.9224,693.1
471.9492,76.9
472.2099,191.4
472.286,248.9
472.3022,171
472.5387,72.6
472.5989,134.7
472.6477,44.6
472.7384,592.5
472.9224,2715
472.9424,133.7
472.9566,1329.3
472.9735,646.6
473.1496,860.1
473.2061,754.1
473.2642,3337.5
473.3728,169
473.6992,439.8
473.9172,414.4
474.0869,48.2
474.1053,19.5
474.4834,16.9
474.7009,464.6
474.7933,52.8
474.966,478.4
475.2226,22834.4
475.3029,999.6
475.3727,836.1
475.9208,156.7
476.226,5483.6
476.5059,38.5
476.5317,129.7
476.5984,54.4
476.8378,327.5
476.9406,41142.4
477.0617,53.8
477.1627,459.1
477.2211,936.4
477.2733,278.3
477.944,1040.5
478.1053,21
478.2919,936.6
478.3296,32643.5
478.5358,80.7
478.9379,11824.1
479.0415,48.9
479.1804,545.1
479.3325,4450.8
479.3606,92
479.4072,22.5
479.5302,52.8
479.6129,60.5
479.6882,796.3
479.9409,775.2
480.0986,769.1
480.2976,154.8
480.3449,507
480.4782,93.6
480.5123,670.5
480.7633,21.6
480.813,586.5
480.9118,737.8
480.9526,1698.5
481.0361,76.2
481.0915,66.9
481.2325,943.9
481.5024,34.7
481.8624,838
481.9963,65
482.0545,221.4
482.2582,218.9
482.324,1433.2
482.3601,1679.4
482.4656,65.3
482.7359,151.8
483.1387,113.9
483.2485,119669.8
483.305,992.6
483.9897,68.7
484.064,19.5
484.1022,94.8
484.252,26394.5
484.4809,87.1
485.1015,216.1
485.1665,261.7
485.2642,65068.4
485.3777,269
485.3935,80.1
485.5173,509.2
485.5437,402.4
485.8147,444.7
485.9041,85.7
486.1125,113.1
486.2675,12238.7
486.3746,84.1
486.5914,178.1
486.8711,720.1
486.8967,820.9
486.9691,1277
486.9854,85.7
487.011,604.5
487.1508,27.7
487.2798,73261.1
487.4202,55
487.6589,111.4
487.6945,18.3
487.8513,76
487.9262,389.8
487.9913,72.4
488.0624,94.4
488.217,42
488.2461,46.3
488.2834,15338.2
488.5597,40.3
488.5775,89.4
488.6116,340.2
488.8495,169.7
488.878,65.8
488.904,130
489.0143,81.2
489.0862,49.9
489.1315,359.7
489.3368,23.9
489.3557,1036.9
489.427,952.1
489.4453,113.1
489.4516,81
489.4556,67.9
489.4689,345.1
489.5259,67.8
489.5394,383.7
489.5667,81
489.5862,205.9
489.6089,70.4
489.6561,60.2
489.6971,41.5
490.0211,253.5
490.1022,44.8
490.1803,189.3
490.2743,59.7
490.2907,7840.4
490.3619,134.1
490.6092,575.3
490.6559,123.5
490.884,39
491.1678,81.9
491.2888,61.9
491.3473,315
491.3568,50.3
491.4283,44.9
491.644,320.4
491.7326,1014
491.9104,43
492.7197,214.1
492.8199,186.9
492.8809,303.4
492.9149,8822.9
493.1639,45.3
493.1889,89.2
493.9175,965.9
494.2916,155.7
494.3245,5863.4
494.9117,1376.3
494.9676,59.9
495.0246,170.2
495.0533,125.3
495.1206,176
495.1467,31.6
495.2305,48.7
495.3317,94.5
495.3922,185.2
495.4687,42.3
495.8063,360.4
496.0696,493.7
496.1568,20.9
496.1892,72
496.2779,174.5
496.3204,40.5
496.3402,381796.6
496.4027,19.5
496.4153,919.2
496.443,295.7
496.5627,256.3
496.5836,481.4
496.7029,20.6
496.7858,71.6
497.285,313.6
497.3435,94039.8
497.7327,521.3
497.8901,381.5
497.9398,43.6
498.158,50.5
498.3459,5804.3
499.06,80.7
499.1133,44
499.1636,18.6
499.2228,4382.6
499.333,69.8
499.3948,694.9
499.4576,19
499.5674,168.9
499.95,504.8
500.2891,407.5
500.3015,128.2
500.5324,717.9
500.6966,273
500.95,912
500.9861,2016.8
501.0652,79.6
501.1631,395.1
501.2382,4314.3
501.3705,70
501.4812,628.6
501.708,92.6
501.8523,72.6
502.179,47.9
502.3291,16559.8
502.6152,47.5
502.758,57.8
502.8621,168
502.913,246.1
503.1085,26.1
503.1958,23
503.2538,4938.1
503.3334,1268
503.4826,62.7
503.8817,374
504.171,356.6
504.227,640.9
504.3065,5916.2
504.3443,4563.9
504.4671,383.6
504.6743,810.1
504.7756,55.5
505.0784,106.1
505.1542,157.4
505.2206,364.1
505.3671,461.1
506.1856,173.8
506.3604,2877.5
506.38,78.1
506.8914,2383.6
507.0137,18.3
507.0752,191.8
507.2486,11767.1
507.3292,44.8
507.3635,724.2
507.6989,79.3
507.8083,60.2
507.819,377
507.9233,574
508.1538,131.4
508.253,1281.1
508.3047,121.6
508.7949,114.3
508.8883,1825.8
509.0052,1720.8
509.0328,72
509.1293,22.5
509.264,7799.9
509.3162,99.9
509.8856,70
510.1581,734.7
510.1734,762.4
510.3557,2497.7
510.5532,171.2
511.1246,64.4
511.4194,523.3
511.5158,389.6
511.5823,89.1
511.6857,180.3
511.8253,592.1
511.8924,181.2
512.1965,22.1
512.2104,53.8
512.2328,153.3
512.4802,67.9
512.764,250.9
512.8359,224.9
512.8479,273.8
512.9086,9396.4
513.1356,235.2
513.1632,806.1
513.6506,401.6
513.6715,197.5
513.7147,119.7
513.724,82.2
513.9403,129.8
513.9813,39.5
514.2489,84
514.5053,430.7
514.5154,108
514.5223,94.6
514.8891,17.4
514.9057,6176.6
514.9484,425.6
515.1564,225.1
515.2634,20.8
515.3793,70.5
515.4578,53.7
516.2422,59.8
516.3064,15260.6
516.554,220.5
516.634,67.1
516.7002,66.2
516.8208,223.7
516.9205,577.7
517.3103,1821.4
517.3458,135.1
517.3715,1033.5
517.5598,379.3
517.7864,150.3
518.1897,824.6
518.322,750783.3
518.3719,19.8
518.6046,215.2
518.6154,18.5
518.6601,52.4
518.7637,125.5
518.9253,22609.6
519.2402,50.8
519.3254,183874.7
519.3655,86.4
519.6181,531.6
519.9402,146.4
520.0815,52
520.1417,60.8
520.2802,415.2
520.3401,134128.4
520.3901,48
520.672,20.3
520.7475,520.6
520.9226,12122.2
520.9901,67.3
521.063,64.9
521.3231,541.2
521.3275,764
521.3318,916.6
521.3436,34989.4
521.5693,208.4
521.9083,258.1
521.9262,613.5
522.0485,89.7
522.2826,52.6
522.3557,78132.4
522.725,92.8
522.7682,819.6
522.9371,3856.2
522.9861,71.4
523.2236,1387
523.3592,18052.7
523.5587,21.7
523.6317,633.7
523.9644,134.9
524.0662,287.8
524.3337,88.4
524.3714,116320.8
525.046,91.8
525.3748,30264.6
525.5059,490.2
525.7753,18.4
525.9353,18.8
526.0476,850.2
526.1694,66.9
526.1954,427.3
526.3291,1468.8
526.3665,116.4
526.3769,1987
526.4446,826.7
526.4826,738.5
526.496,91.4
527.0528,645.8
527.2006,776.4
527.2178,61.9
527.3053,70.6
527.3304,668.6
527.4257,87
527.6686,113.1
527.7343,76.3
527.7515,914.8
527.802,322.3
527.8044,326.3
527.9689,284.1
528.2308,219.1
528.374,46.3
528.5548,18.3
528.8821,4933.9
528.9537,1256.1
529.3378,405.8
529.7055,266.6
529.7763,298.4
529.8814,189
529.9368,757.4
530.0249,175
530.0426,93.7
530.1335,773.9
530.1691,62.7
530.2304,64.7
530.3575,762.7
530.3815,167
530.4069,102.3
530.5308,20.6
530.6999,473.8
530.7688,57.2
530.7891,145.3
530.8795,5704
531.1946,199.6
531.222,101.3
531.2493,3220.8
531.8294,88.6
531.8588,121.3
531.8865,417.6
532.1534,115.7
532.28,848.2
532.3378,8125
532.8779,645.3
532.9653,1937.9
533.0096,818.1
533.0359,580.4
533.3227,648.4
533.4281,172
533.5182,494.7
533.5285,67.6
533.5885,83.3
533.6156,65.7
533.7204,59
534.0997,793.1
534.2961,198213.5
534.3173,2570.6
534.607,212.4
534.8849,150
534.8991,15513.8
535.0881,862.7
535.1527,117.5
535.2089,56.8
535.2995,50978.2
535.3851,434.7
535.4452,19.1
535.7185,50.8
535.9134,18.3
536.0321,350.8
536.2944,8809.6
536.3383,170.3
536.3774,357.9
536.667,19.4
536.6924,195.8
536.8967,10248.4
536.9487,263.7
537.0746,210.1
537.2722,500.9
537.302,878
537.3289,21.3
537.3425,334.8
537.6302,83.1
537.8066,73.9
538.4689,474.4
538.605,215.4
538.8793,445.8
538.9108,2181.1
538.9837,839.9
539.0492,18.6
539.2294,205.1
539.4878,69
539.6101,50.7
539.8212,38.8
539.8663,72
539.9023,129.9
539.9706,121
540.0254,181.3
540.2927,116.1
540.3192,41.2
540.3879,84.6
540.4493,298
541.0952,54
541.145,87.1
541.1608,385.9
541.3849,973.8
541.9943,49.9
542.2871,546.6
542.3221,233738.2
542.493,648.3
542.8986,44.2
543.1856,86.8
543.2672,400.1
543.3254,62258.6
543.403,1750
543.8359,138.8
543.9287,428.8
544.0813,416.8
544.3377,146658.7
544.5453,163.4
544.855,645.9
544.8677,119.9
544.918,38.2
544.9276,818
545.1322,90.4
545.3073,383.3
545.341,38454.4
545.6685,74.4
545.709,372.4
545.957,48.5
546.2757,123.6
546.3534,210256
546.8187,112.2
546.8998,450.8
546.9488,96.7
547.0481,301.6
547.3567,53665.4
547.3977,27.1
547.5402,79.3
547.7875,79.2
547.8163,171.7
547.8261,88.9
548.3399,79.7
548.3604,5491.3
548.5577,96.9
548.5848,829.8
548.8553,729
549.0194,204
549.1537,289.7
549.2343,81.3
549.5083,121.1
549.6877,423.8
549.7442,38.6
549.7699,118.1
549.9496,47
550.0859,53.8
550.3797,173.3
550.7788,38.7
550.8736,4625.5
550.9458,18.7
551.4225,101
552,804
552.1391,474.9
552.3536,51.1
552.3799,129.8
552.4197,222.4
552.4747,20.3
552.6199,180.7
552.6802,137.9
552.7684,79.3
552.8702,2375.3
552.942,185.8
553.0034,23.1
553.0332,262.1
553.1894,175.8
553.2621,40.5
553.75,18.3
553.9438,23.4
554.1587,205.8
554.8928,656.4
555.1427,126.6
555.1995,94
555.794,540.6
556.0361,844.9
556.06,18.9
556.0876,864.3
556.3004,48.9
556.4115,135.7
556.4306,982.6
556.5946,455.3
556.6019,355.3
556.736,210.7
556.9001,622.1
557.0191,59.7
557.2902,41
557.3577,46.2
557.5245,78.8
557.7495,83.2
557.8001,79.7
558.0457,174.3
558.2222,84.9
558.296,68441.8
558.6026,47
558.7005,69.9
558.7908,133.1
558.8223,76
558.8305,90.7
558.8364,109.5
558.8399,91.2
558.8653,452
558.931,85.9
558.9659,45
559.0853,107.6
559.1253,38.4
559.1362,201.3
559.2995,16711
559.6186,139.5
559.8528,102.3
559.9581,248.9
560.0032,169.1
560.3115,36010.4
560.4534,41
560.564,452.2
560.6242,78.3
560.6494,77.1
560.895,47.4
561.0422,96.2
561.2985,622.2
561.3146,9867
561.5332,46
562.166,354.3
562.3089,619.9
562.3273,51085.4
562.3855,504.4
563.0844,78.3
563.1001,399.9
563.2146,87.7
563.2245,76.4
563.249,134.7
563.3309,11997.4
563.4773,43.7
564.0272,62.4
564.062,44.5
564.3254,1703.9
564.4404,393.9
564.5019,115.4
564.5949,59.5
564.6206,57.1
565.1303,493.7
565.1507,45.6
565.2364,473.8
565.5137,105.1
565.6988,205.8
565.9016,55.4
566.0089,43.3
566.322,26954.1
566.4183,249
566.6655,189.3
566.7852,746.1
567.2031,690.1
567.3256,6047.5
567.8745,38.4
568.025,406.8
568.0399,82.9
568.0672,58.6
568.09,163.5
568.1379,133.7
568.3379,15048.7
568.4013,51
568.4422,54
568.7984,311.4
569.0573,47.3
569.0771,775.4
569.1316,80.1
569.3404,2400.7
569.3737,44.3
569.4147,490.2
569.7787,51.8
569.8535,516.7
569.9023,200.5
570.1746,486.6
570.1941,58.6
570.2228,151.3
570.3489,508
570.3744,386.6
570.6202,413
570.7033,414.4
570.8344,128.7
570.8666,3786.6
570.9277,233.7
571.0342,857.6
571.1908,54.6
571.4693,103.7
572.023,41.9
572.1059,256.7
572.279,566.1
572.3695,1211.8
572.5684,114.8
572.7709,59.4
572.864,1302.5
572.9512,561.4
573.2841,72.5
573.393,693.4
573.6972,892.2
573.7671,183.6
574.3539,94.1
574.6321,167.6
574.696,85
574.8136,43
574.9822,985.8
574.997,597.4
575.017,99.9
575.0536,176.2
575.0766,217.6
575.2852,807.3
575.339,22.1
575.5037,5767.2
575.7826,149.5
576.0102,999.7
576.2808,8947
576.5064,23.8
576.8079,85.8
576.884,4973.1
576.9634,129.7
577.0054,41.7
577.1296,90.2
577.1356,85.8
577.2841,2180.7
577.4798,381.5
577.7213,399.9
578.1142,218.4
578.2775,1800.8
578.3004,110.6
578.7034,125.7
578.8811,6620.2
579.0139,159.2
579.089,125.4
579.1284,49.1
579.1673,76.7
579.2662,93.6
579.3903,236.6
579.4808,79.4
579.5374,166
580.015,482.2
580.1684,152.6
580.2927,900.4
580.4397,160.2
580.5235,156.2
580.5826,184.4
580.7295,615.7
580.8772,1188.2
580.895,2766
580.9774,97.2
581.1868,380.3
581.4948,21.1
581.5312,63.5
581.8546,1097.1
581.8924,52.6
582.2733,572.9
582.2958,7240.5
582.3817,511.5
582.4332,278
582.4568,412.5
582.4922,1146.8
582.5171,72.5
582.536,500.8
582.5568,972.9
582.6108,480.9
582.6245,72.3
582.65,48.3
582.83,123.2
582.8605,102.7
582.8921,941
582.9357,516.9
583.001,99.4
583.2554,1342.2
583.6662,918.6
583.8658,359.2
583.8881,329.8
583.906,79.3
583.9456,113.3
583.9904,936.2
584.0227,213.4
584.1954,164.7
584.2284,209.2
584.3111,2465.8
584.7453,242
584.7832,130.3
584.8711,188.1
584.9295,639.7
585.1895,813
585.2714,7026.7
585.2898,718.5
585.5187,487.3
585.5586,54.2
585.7643,460.1
585.8157,21.6
586.0376,463.5
586.1747,420.6
586.2277,484.1
586.2739,779
586.3095,3719
586.7085,577.3
586.8415,1111.6
586.9124,835.8
587.0044,794.2
587.0338,482.4
587.1281,112.9
587.3769,20
587.4337,55.3
587.6002,424.7
587.6458,186
587.7081,79.8
588.0006,197.6
588.0548,145.4
588.1115,97.8
588.1955,117.3
588.23,43.8
588.3468,313.4
588.5482,217.6
588.5879,126
588.6831,65.9
588.9487,157.1
589.0167,262.7
589.3072,24.2
589.3844,99.3
589.5745,249
589.6276,51
590.3225,6066.4
590.7377,19.7
590.876,41.5
590.9233,1582.7
591.1461,350.9
591.3251,692.4
591.4413,217.2
591.6024,55.7
591.7862,174.8
592.2113,61.5
592.2557,653.6
592.4745,362.7
592.5335,498.8
592.6262,596.6
592.6748,539
592.8581,6143.9
593.1462,565
593.2917,247.2
593.6235,66.1
593.8465,240.8
593.8615,553.8
594.0717,609.7
594.1599,900.8
594.1964,361.6
594.243,448.9
594.2939,58.7
594.3204,55.2
594.3668,672.6
594.5385,132.5
594.855,3884.4
594.9987,103.8
595.0017,103.9
595.101,284.7
595.2035,18.8
595.3357,58
595.8095,59
596.0238,77.7
596.0622,17.5
596.2644,848.2
596.2819,68.1
596.712,128.8
596.8246,97.3
596.8519,1247.4
597.0037,52.1
597.2223,284.3
597.4553,4980.6
597.4858,8741.4
598.0954,347.8
598.1523,427.3
598.2775,192.9
598.3996,244.3
598.4132,1026.5
598.4364,107
598.4542,1869.5
598.4893,1754.3
598.55,235.2
598.9385,339.6
598.9666,365.8
598.9963,86.5
599.4718,610.3
599.5911,133.2
599.6403,654.5
600.0643,96
600.1224,426.3
600.2807,1830
600.3641,28.9
600.475,173.8
600.5481,81.7
600.6732,50.4
601.043,76.8
601.0559,21.1
601.1615,185.2
601.2791,341.6
601.4397,51.2
601.6459,133.4
601.6981,491.9
601.7921,27.1
601.8726,24.8
601.9787,58.1
602.0643,849.6
602.0874,747.6
602.331,91.6
602.6064,319.6
602.6541,18.7
602.8151,512
602.8871,531.9
602.9582,291.3
603.0203,22.6
603.1183,43.1
603.4261,310.7
603.5351,125.2
603.6474,954.3
603.7766,695.6
603.9797,373.9
604.1036,45
604.1542,93.2
604.2684,213.6
604.9041,87.2
604.9653,24
605.4716,19.8
605.9041,305.1
606.0849,18.6
606.156,114.4
606.2969,841.5
606.3039,1056.9
606.4071,145.2
606.5392,49.3
606.5519,143.1
606.647,48.1
606.7568,538.8
606.8975,401.5
607.1711,9539.5
607.4998,848.7
607.9206,156.5
608.0821,484.5
608.1747,1355.1
608.2494,133.3
608.7104,81.4
608.832,1239.5
609.1479,1292.2
609.4155,413
609.4336,693.6
609.4606,64.3
609.8012,252.2
609.9365,20.5
610.4133,126.6
610.4323,45
610.5382,49
610.6611,588.5
610.8298,2795.2
611.1887,220.1
611.2584,987.1
611.339,693.3
611.7957,25.2
611.8771,237.4
612.4034,206.1
612.5119,190.3
613.0483,118.1
613.2996,302
613.4416,476
613.5385,114.3
613.561,449.1
613.6479,59.5
613.8672,49.5
613.9629,133.4
614.0542,46.4
614.3478,92
614.4709,20.9
614.5744,49.1
614.7834,21.5
615.2839,18.1
615.3549,116.7
615.4612,912.1
615.4856,19.9
615.5591,63.4
615.747,93.6
615.8461,57.6
616.2583,522.3
616.2861,66
616.3366,340.3
616.3566,538.6
616.5748,27.1
616.901,236.7
617.3733,188.5
617.4758,9811.9
618.027,90.3
618.4256,584
618.4392,166.7
618.4778,1151.3
618.53,387.2
619.1434,386.8
619.2838,498
619.4234,470
619.4905,2817.4
619.7926,247.9
619.8766,46.5
620.2996,20.9
620.6927,46.3
620.7086,303
620.8626,497.2
621.096,62.7
621.2972,78.6
621.4388,117.1
621.4537,846.3
621.484,1100.5
621.8918,42.5
622.0713,45.8
622.0805,72.1
622.4784,995.5
622.7276,376.8
622.7828,47.9
622.7973,55
622.9079,814.3
622.977,246.3
623.0709,64.4
623.1364,56806.8
623.2704,20.3
623.3177,103.1
623.4787,930.5
623.5001,472.2
623.5622,88.2
623.8006,46.6
624.1399,10539.5
624.4606,101.5
624.7533,22.6
624.8104,767.2
624.8459,461.6
624.9127,511.9
625.1416,626
625.4225,326.1
625.4953,551.4
625.5189,20.1
625.669,43.8
625.994,93
626.0484,53.4
626.1107,71
626.1417,62.7
626.2936,697.3
626.4215,59.3
626.4357,252.4
626.487,195.1
626.6239,69.8
626.7202,252.4
626.9751,404
627.1302,190.3
627.3388,54.4
627.5352,248.6
627.5555,755.5
627.9399,567.4
628.2244,134.1
628.3107,55.2
628.5242,831.5
628.5631,90.6
629.1532,71320.1
629.5782,969.1
629.6053,95.7
630.092,58.8
630.157,13668.2
630.2176,87.8
630.4203,78.5
630.7583,476
630.9776,412.8
631.1294,2503.7
631.1594,1145.6
631.3168,80.8
631.5194,20.7
631.6093,42.6
632.0054,175.8
632.0597,51.7
632.13,58.8
632.1616,317.6
632.4952,75.2
632.7413,180
632.7757,141.2
633.4662,562
633.5155,75
633.8779,508.8
634.1494,394.6
634.3399,74.7
634.4746,129.7
634.843,1772.1
634.9013,26
635.2498,19.9
635.3467,46.5
635.4664,800.2
635.4847,49.8
635.6113,550.4
635.845,17.7
636.0447,39.4
636.2799,57.5
636.4218,44.8
636.644,70.9
636.6823,244.7
636.8394,2928.8
637.1069,102.6
637.2299,721.8
637.4235,599.6
637.6689,1028.2
637.9696,245
638.1015,566.5
638.4567,290
638.5125,126.8
638.5482,50.9
638.7071,270.2
638.8379,665
640.1413,100.2
640.3579,78.9
640.8088,144
641.0622,74.5
641.3234,470.1
641.603,246.5
641.8321,72.1
641.984,68.5
642.2753,58.7
642.294,376.7
642.5399,57.1
642.6207,381.1
642.6819,417.6
643.3926,94
643.5155,465.5
643.529,86.5
643.7944,109.9
644.0508,173.3
644.149,106.6
644.2021,406.1
644.2768,55.8
644.3358,64.2
644.4888,108.4
644.5333,755.1
644.6505,322
645.0673,107.6
645.1181,29029.9
645.3263,73.6
645.3941,19.6
645.4475,977.4
645.4972,86.5
645.9062,435.3
646.1217,4545.7
646.4435,49.4
646.4563,540.5
646.9108,875.7
646.9295,2562.4
647.0945,5006.2
647.1242,645
647.6635,122.5
647.7633,264
648.0979,453.1
648.1514,129.1
648.2042,48.6
648.2244,48.6
648.4451,101.3
648.5424,101.6
648.5684,112.9
648.995,127.5
649.0186,502.7
649.0556,555.2
649.1003,115.5
649.3514,375.2
649.513,65.1
649.5567,179.6
649.6654,130.6
650.0047,22.5
650.0559,43.2
650.1009,713.1
650.4402,2711.5
650.6041,51.6
650.7846,359.1
650.8173,1884.3
650.8617,22.2
650.9083,340.1
651.025,18.9
651.0938,149.8
651.1352,67004.5
651.2353,61.1
651.3762,89.8
651.4419,117.3
651.5046,83.3
651.5998,801.9
652.1386,12122.2
652.3573,17.8
652.8144,3096.1
653.1113,2557
653.1413,1057.3
653.2328,894
653.4763,61.7
653.5793,148.9
653.923,104.5
653.979,53.3
654.039,117.6
654.0659,416.3
654.1152,72.9
654.4564,218
654.6051,150.4
654.6218,226
654.7831,52.1
654.8107,541.2
655.2254,408.3
655.3056,47
655.4518,844.3
655.706,333.2
656.0563,50
656.4456,472.8
656.7184,216.3
657.6296,456.8
657.7634,70
658.2296,20.2
658.3285,204.1
658.4289,1251.4
658.6059,47.5
658.7154,21.5
658.7563,314.2
658.8878,237.9
659.7533,142.8
660.031,166.5
660.0827,753.6
660.1149,45.4
660.1379,75.6
660.6886,402.3
660.8071,202.7
660.9486,956.7
661.083,13836.9
661.1493,17.9
661.3006,783.6
661.3234,160.7
661.4683,1050.9
661.6987,19.5
661.7647,49
661.9279,52.7
662.0869,1449.6
662.3529,76.7
662.4383,185.1
662.4692,149.7
662.5918,87.2
662.6356,47.6
662.7209,141.3
662.77,91.4
662.7902,591.7
663.1002,37.9
663.3904,130.5
663.453,355.9
663.6006,864.6
663.7902,126.9
663.8666,471.9
664.4703,1662.1
664.7037,500.9
664.9566,302
665.088,94.4
665.3204,117.3
665.6901,214.4
665.7198,42.3
665.9793,190.6
666.0748,66.6
666.2252,48.3
666.3483,408.2
666.3981,75.6
666.4831,4973.2
666.9368,127.3
667.0998,29244.2
667.416,387.9
667.546,18.9
667.6044,397.3
667.8849,151.4
668.0495,412.1
668.0732,217.5
668.1039,3950.6
669.0742,1363.3
669.1082,292.3
669.1959,93.3
669.3451,55
669.3752,235.3
669.5598,53.3
669.8606,136.1
670.0603,181.9
671.1423,58.4
671.4829,106.5
671.5682,162.3
671.7036,116
671.9916,377.4
672.422,4636.1
672.685,19.7
673.0261,357.3
673.1172,68095
673.3646,181.8
673.6188,108.2
674.089,121.1
674.1206,13207
674.3355,142.1
674.6243,104.7
675.0942,244
675.1221,865.6
675.4325,86.8
675.5439,8275.5
676.0082,589
676.0479,955.4
676.0941,69.1
676.2506,155.1
676.3672,77
676.5475,32.9
676.5883,170.5
676.9633,468.4
677.0866,498.1
677.2516,17.7
677.3394,686.5
677.4596,99.9
677.5032,91.3
677.7868,45.1
678.0468,746.7
678.4674,210.4
678.5058,915.7
678.9749,897.5
679.4809,213.7
679.6246,717.1
680.8443,879.9
680.9626,211.6
681.3014,43
681.4258,23.3
681.4527,385.7
681.6139,77.4
681.8794,66.9
682.0649,1016.4
682.3312,20.3
682.6715,45.3
682.9722,535.6
683.065,6933.8
683.3205,46.9
684.03,92.4
684.0752,211.5
684.2604,403.3
684.7514,189.7
684.8892,134.8
684.9945,848
685.0492,177.5
685.076,50
685.4149,332.6
685.4364,2245.1
685.8858,92.1
686.4355,875
686.4702,327.5
686.8635,341.8
687.125,57.5
687.3606,18.5
687.5509,85.3
687.6827,62.5
687.7964,213.2
687.8534,68.6
688.4171,1127.1
688.4565,565.4
688.5594,387.5
688.5882,148.7
688.604,556.7
688.6341,59.7
688.8736,717.3
688.9993,108.6
689.0039,113.8
689.0814,21733.4
689.0911,22112.3
689.5603,717.8
689.6491,385.6
690.0949,3054.3
690.4626,61.8
690.8336,139.6
690.9411,58.5
690.9635,755.7
691.057,331.4
691.0876,806.8
691.2325,364.4
691.4653,110
691.7173,150.3
692.177,80.3
692.2276,57.3
693.2025,67.4
693.472,124.9
693.7672,885.5
694.1917,114.3
694.1963,109.1
694.4668,369.7
694.7989,659.9
695.0991,42266.1
695.4247,210.7
695.5113,1207
695.5895,403.4
695.9196,442.2
696.0284,473.4
696.1023,6430.2
696.2528,878.6
696.479,18.7
696.6194,86.6
696.7134,92.9
697.0751,229
697.1055,359.3
697.5262,17955.9
698.4741,185.3
698.5304,3950.6
698.7028,460
698.895,304
698.9395,263.4
699.3149,80.8
699.4807,133.4
699.6282,246.9
699.71,182.8
699.7716,39.6
700.0586,368.6
700.1646,117.8
700.3285,20.3
700.446,714
700.4779,65
701.3673,614.8
701.5599,21124.5
701.7386,84.4
701.9621,799
702.3422,733.3
702.5631,7543.6
702.6413,173.1
702.7194,88.4
702.7807,646.7
702.9665,22.4
703.3189,122.8
703.4071,568.8
703.4706,270.2
703.5263,232.6
703.5757,69436.2
703.6023,131.7
703.7547,95.5
704.2597,55
704.424,608.9
704.4487,7312.4
704.5795,27056.2
704.8006,47.9
704.9211,648.5
704.9437,46.8
705.0215,208.2
705.0556,5122.2
705.0835,549.1
705.424,360
705.5817,3652
705.6751,612.9
706.3021,828.9
706.5108,128.4
706.5348,1495.3
706.7563,1013.8
707.0643,72.7
707.395,199.8
707.411,54.1
707.459,405.7
707.7225,65.8
707.7996,46
707.8389,124.3
707.9128,126.8
708.0032,241.5
708.0496,63.2
708.4281,543.9
708.5523,85.7
708.5822,56.5
708.7621,52.6
708.7893,48
708.8562,66.5
708.9889,148.6
709.1764,68.5
709.321,287.6
709.6048,22.9
709.6662,157.1
709.842,86.5
710.1516,299.9
710.7866,339.6
710.9383,287.9
711.0019,157.8
711.0741,18644.1
711.1929,1025
711.3334,54.8
711.5405,3386.6
711.6177,367.6
712.0766,1604.9
712.2115,623.1
712.2355,477.6
712.377,58.8
712.4627,37.3
712.7647,659
712.81,642.8
712.8796,127.4
713.0311,149.7
713.0714,124.3
713.2142,56.3
713.3001,217.4
713.3837,235.3
713.4729,18.8
713.4988,739.3
713.6053,534.8
713.7278,45
713.9202,245
714.4632,145.8
714.5377,120.5
714.8109,839.9
715.1065,104.4
715.3875,432.5
715.4338,382.6
715.4844,45.9
715.535,161.2
715.6617,176
715.7352,270.8
716.1675,45.1
716.2744,169.4
716.3774,28
716.5197,150.3
716.6035,256.8
716.7567,107.5
716.8134,104.3
717.0265,53.6
717.0811,20496.2
717.1358,453.7
717.1674,167.1
717.2992,162.9
717.8822,51.8
718.0429,326.4
718.0857,2010
718.2434,57.7
718.5739,300.6
719.3598,174.9
719.4615,764.4
719.5747,488.1
720.1955,19.2
720.3958,67.7
720.5535,144.4
720.5906,205.3
720.7126,235
721.4789,49643.3
721.5256,387.4
721.5989,361
721.7838,55.8
721.8773,698.6
722.0318,871.1
722.3021,98.1
722.482,19479.6
723.1122,194.5
723.2816,237.3
723.485,2484.6
723.5418,34496.1
724.0165,549.9
724.0731,69.7
724.2771,272.7
724.4919,164.7
724.5453,14817.6
724.9601,49.5
725.0067,83.6
725.0768,238.6
725.395,100.2
725.4103,48.8
725.5578,93928.6
725.6891,575.9
725.7215,352.6
725.9812,47
726.0601,167.9
726.1475,440.7
726.5611,35799.7
726.7202,94.1
726.9374,445.3
726.9776,269.8
727.0295,2668.8
727.2769,574.1
727.5297,174
727.5634,4933.6
727.7054,381.2
727.8629,141.9
727.9691,19.2
728.5215,2034.5
728.755,320.3
728.9614,324.5
728.9973,119.3
729.0268,455.8
729.096,74.4
729.5909,4029.7
729.7221,562.3
730.501,45.7
730.5381,10694.6
730.5931,577.5
730.9187,64.8
731.0132,62.3
731.483,447.7
731.5205,377.6
731.5437,2165.7
731.6067,3511.3
731.9916,488.9
732.1395,892
732.1599,45
732.4397,122.3
732.4789,2668.1
732.4989,110
732.555,19619.5
732.6096,734.5
732.8357,69.1
733.0458,5707.2
733.057,10131.6
733.3617,94.9
733.5583,5210.9
734.2479,524.9
734.3929,1796.6
734.5113,215.1
734.5711,5855.9
734.6488,214.4
734.7669,48.5
735.0669,591.6
735.5735,415.4
736.3983,151.7
736.5068,82.8
736.6533,809.5
736.7298,184.1
737.4525,14914.1
737.5498,194
737.8611,114.9
737.943,194
738.3213,238.2
738.4548,3613
738.5864,88.2
738.6735,171.4
738.7044,313.3
738.775,652.6
738.864,222
738.9694,927.9
739.0147,157.1
739.0631,10423.6
739.3058,20.4
739.5161,2747.7
739.5659,912.8
739.627,126.6
740.0664,458.1
740.2693,417.1
740.5225,1742.8
740.6428,18.9
740.6779,206.9
741.4365,19.3
741.5316,10532.3
741.5752,19.7
741.8561,195.8
742.037,121.1
742.0739,45.5
742.413,558.7
742.5356,3812
742.5758,5738.4
742.6754,132.9
743.0405,530.2
743.1037,123.8
743.2873,698.7
743.3702,238.9
743.5802,247.5
743.7028,661
743.7411,55
744.0383,1079.7
744.08,22.1
744.5553,4885.2
744.5912,8442.2
744.7416,478.5
744.945,334
745.4781,12889.7
745.5575,2082.2
745.5953,1453.4
745.7386,59.1
745.9761,19.9
746.3753,347.5
746.4814,4089.5
746.5691,1074.7
746.6065,582.9
746.6296,178.4
747.2196,77.6
747.4951,4349.9
747.5516,225.9
747.8029,342
748.1694,53.3
748.3378,94.3
748.4781,141.7
748.7558,813.2
748.882,69.7
748.903,22.8
749.0047,749.5
749.0305,1269.8
749.0857,537.3
749.5108,2373.3
750.4577,804.9
750.9268,911.6
751.0291,78.4
751.1724,75.3
751.5429,59.8
751.5719,3485.9
751.7021,60.5
751.8043,74.4
752.183,179.9
752.3753,117.8
752.5203,14815.3
752.7668,727.3
753.1311,1042.3
753.1682,127.6
753.2723,39
753.5247,6314.6
753.5924,701.7
753.6293,514.7
754.1514,568.3
754.5369,24048.8
754.845,55.1
755.0386,4290.7
755.076,137.5
755.2693,114.3
755.5407,7757.3
755.9869,79.1
756.5546,33123.5
757.0584,68.6
757.5216,403.4
757.5582,12301.2
757.6003,178.3
757.6213,176.8
757.8462,84.8
758.1405,75.9
758.1773,101.5
758.4642,86
758.5705,953695.7
758.8123,65.1
759.0467,165.6
759.4014,51.2
759.5739,430955.1
759.6382,305.2
759.7839,873.4
759.8016,122.3
760.0923,129.2
760.5738,55282.7
760.5879,176355.5
761.0452,5151.5
761.1498,80
761.3553,48
761.4501,1745
761.5903,86804.8
761.8692,40.8
762.1813,89.8
762.5928,17340.2
763.0215,356.7
763.0972,197.7
763.3976,22.2
763.4438,58.5
763.4671,504.2
763.5946,548.7
763.7455,162.1
764.0481,25.9
764.1571,384.1
764.558,3377.6
764.9415,53.4
765.4554,619.9
765.6052,96.8
765.7627,873.2
766.1729,89.2
766.1945,19.9
766.3747,268.2
766.5367,6856.1
766.5751,19175.2
767.1518,434
767.2622,102.9
767.5395,1225.5
767.5786,5093.7
767.6405,57.4
767.733,55.8
768.0254,315.4
768.4968,631.8
768.5528,2311.9
768.591,28682.4
768.7096,1365.1
768.7986,162.2
768.8936,254.1
768.944,19.1
769.1784,65.7
769.3038,153.3
769.4388,22.1
769.4798,3838.5
769.5944,11636.2
769.9016,439.9
769.9875,258.3
770.417,113.7
770.5112,3698.6
770.5699,617.2
770.6085,3046
770.8387,87.7
770.9931,2476.3
771.0226,94.4
771.3141,587.1
771.5141,878
771.6126,596.3
771.687,253.4
772.5861,12469.6
772.6992,86.9
773.1934,46.5
773.2582,176.2
773.589,2051.9
773.6519,58.9
773.7844,127.7
774.1949,813.4
774.2123,201.2
774.5055,687.1
774.9407,353.6
775.2428,500.6
775.6845,42.4
776.522,1845.8
776.7072,329.7
776.871,478.9
777.0101,1372.3
777.258,191
777.5434,3303.3
777.7023,276.6
777.7241,336.6
778.3393,57.2
778.3893,242.6
778.5367,34641.8
779.0204,43.8
779.0951,93.6
779.4054,762.7
779.54,10807.4
780.5524,864629.1
780.59,176.5
780.7607,103.5
781.1639,19.2
781.5558,376055.3
781.7113,48.9
781.8635,42.3
782.0854,48.2
782.4511,53.4
782.5703,375548.4
783.0277,3096.6
783.1528,889.6
783.2051,306.5
783.4508,48.6
783.5156,1268.5
783.5733,182963.7
783.6885,43.2
784.2776,698.8
784.5868,240759.6
784.6792,494.4
785.0674,101.1
785.3799,408.2
785.4504,1004.9
785.5897,120207
785.6542,2823.5
786.1257,84.9
786.6023,236542.9
786.6567,122.1
786.8522,1124.9
787.2086,217.4
787.6055,116569.5
787.6695,1186
787.857,66.1
787.9769,208.5
788.2629,785.6
788.558,6060.5
788.6063,18670.8
788.6205,3937.4
788.6542,220
788.674,64.8
789.1407,151.6
789.4168,362.9
789.5588,1930.6
789.6233,1866.9
790.0459,1900.5
790.1322,232.3
790.3138,410
790.3785,118.9
790.5737,17262
790.6232,254.4
790.7829,789
791.4878,113.2
791.5211,25.7
791.5767,6683.7
791.8594,59.6
792.2415,18.6
792.4841,795
792.5095,56.5
792.5906,7545.1
792.6214,104.3
792.9825,345.2
793.1048,23.1
793.2689,88.3
793.2904,441.6
793.371,501.2
793.5558,269.3
793.5931,1862.7
794.303,20.3
794.4866,90.8
794.5099,4066.5
794.5329,66.3
794.5685,4895.1
794.607,22952.3
794.6465,182.2
795.0101,432
795.252,43.9
795.3755,50.6
795.5717,3381
795.6105,9026.1
796.2096,47.2
796.5263,169715.7
796.6234,4288.1
796.8698,572.2
796.9223,70.7
796.9872,184.2
797.1516,136.7
797.1691,403.1
797.5298,76543.5
797.6251,1464.3
797.8679,151.5
798.2051,48.6
798.282,173.9
798.5439,25325.1
799.1919,263
799.2972,100.8
799.5453,12185.6
799.6779,65.3
799.8029,50.8
800.3453,246.2
800.4486,91.1
800.5393,397.2
800.6712,86
800.9558,18.4
801.6855,217.7
801.8741,40.7
801.9906,52.1
802.15,187.5
802.5361,8029
802.6439,477.3
802.9001,84.1
803.1302,452
803.5419,1235
803.9368,55
804.1392,282.3
804.3405,50.3
804.4308,463.1
804.4532,42.7
804.5525,228771.5
804.9073,100.2
804.9229,86.7
805.5559,106332.1
806.0297,56.4
806.5692,263040.1
807.0723,269.1
807.1838,42.8
807.2734,21.2
807.5725,127684.8
807.6364,285.5
807.9359,244.5
808.585,181160.6
808.6259,550.9
809.2654,17.7
809.5881,90478.6
809.6508,537.7
809.8485,250.1
810.2923,51.8
810.5417,417.6
810.6025,78565.4
810.7208,49.5
810.8054,167.2
811.1109,17.1
811.6055,41404.7
811.67,5568.7
811.9742,19.6
812.0011,51
812.3974,741.1
812.6191,26229.1
812.6742,783.3
812.9289,61.8
813.2622,51.4
813.6217,11275.3
813.6858,6963
814.0976,37.7
814.4327,236.6
814.5695,3373.1
814.6219,173.8
814.6894,1631.4
814.8803,655
814.9424,115.3
814.9892,868.6
815.0298,47.6
815.4069,365.3
815.7001,51.3
816.0459,163.2
816.4113,89.5
816.5889,12698.7
816.6759,216.6
816.7062,64.1
817.1141,148.2
817.19,506.3
817.5622,172.8
817.5925,4758.6
817.6328,20.4
817.8435,79.6
818.469,56.2
818.5107,1295
818.6059,2093.9
818.7238,381.9
818.9237,627.7
819.3037,154.4
819.542,171.5
819.6096,697.5
820.4386,765
820.5264,48417.8
820.5554,21.1
820.5857,210.4
820.6238,251.9
820.7541,802.8
820.8921,419.4
821.5299,24584.5
822.155,47.9
822.1942,129.7
822.2196,530.5
822.2504,405.8
822.5428,34798.5
822.6387,63.7
822.8022,165.5
823.0983,483.8
823.1788,185.9
823.1986,20.8
823.5461,15973.3
823.6843,46.5
823.8549,62.8
824.4824,18.6
824.5586,29633.9
824.6782,54.5
824.9384,323.4
824.9651,477.8
825.3274,134
825.5613,13965.5
825.9983,101.3
826.0144,101.8
826.5911,99.5
826.9874,531.2
827.0506,430.7
827.0841,104.3
827.1385,256.2
827.2077,67.3
827.2311,168.3
827.2521,113.7
827.6591,55.6
827.7801,768.7
828.5524,71585.5
828.9313,41.1
829.2804,213.3
829.3947,398.6
829.4448,21.1
829.556,34268.9
829.8751,54.8
830.1359,352.5
830.2159,700.3
830.2996,49.3
830.3985,80.6
830.5693,33984.5
830.6983,526.9
831.3694,392.5
831.5718,16052.8
832.3352,583.3
832.4274,231.2
832.4331,231.2
832.5846,53792.5
833.2951,21.7
833.5877,25229.8
833.6517,76.7
834.0544,48.7
834.602,26443.5
834.7475,115.5
834.8487,635.6
835.0204,91.3
835.1173,703.1
835.276,434.3
835.4396,480
835.4928,60
835.5726,56.7
835.6044,11735.9
835.6676,435.2
835.7458,176.9
835.7686,101.5
836.6175,1891.3
836.6609,70.7
836.6737,91.2
837.3222,202.1
837.3484,19.1
837.6225,504.1
838.183,99.2
838.4372,20.1
838.49,566.7
838.5112,4989.9
838.6354,46.3
839.1622,116.6
839.3475,143.5
839.5168,808.5
839.7474,76.5
839.8627,669.1
840.0809,58.7
840.3082,44
840.3828,24.9
840.7687,793.3
840.8392,800.4
841.1732,18.6
841.3281,930.3
841.984,798.3
842.3548,110.6
842.4109,225.7
842.839,92.5
842.9572,819.3
843.3826,22.7
843.4944,478.9
843.6799,204.6
844.318,73
844.527,12552.7
844.914,20.5
845.5295,1007.1
845.8995,377.4
846.542,3741.5
847.5426,1851.2
847.5734,352
847.9071,106.4
848.0982,50.2
848.4568,38.2
848.5564,9019.3
848.696,158.3
848.9899,299.7
849.5604,875.2
849.5916,68.3
850.5716,267.4
850.6088,193.8
851.1831,54.1
851.2132,315.6
851.2781,53.8
851.5239,110.2
851.6803,351.5
851.8502,108.2
851.8796,935.4
851.9591,54.9
851.9905,20.2
852.0724,138.7
852.0952,421.3
852.3917,57.5
852.5686,51.7
853.0172,627
853.448,1254.7
853.5348,620.4
853.5628,507
853.958,92.6
854.1845,79.1
854.2447,213.5
854.3832,637.6
854.5377,512
854.5637,189.8
854.675,466.8
854.6935,280.5
854.7414,1377.5
854.8051,39
856.1857,92.7
856.4225,43.1
856.5837,6107
857.3829,179.2
857.5202,864.8
857.5853,203.6
858.4244,437
858.5174,131
858.5975,635.6
858.8292,63.9
859.1168,112.3
859.3275,218.6
859.4065,88.5
860.0213,473.5
860.4435,547.1
860.8003,47.8
861.3514,64.2
861.7808,121
862.1009,58.7
862.5088,47.3
862.6467,555.2
862.9753,135.7
863.4509,44.4
863.7877,90.1
864.0107,58.5
864.895,60
866.3979,64.6
867.3405,49.3
867.4962,208.4
867.5972,386.4
868.1875,54
868.2132,18.8
868.2561,319.4
868.2862,49.8
868.4683,171.7
868.6463,712.6
868.8749,395.9
869.0344,397.6
869.1225,495.3
869.1662,174
869.2344,816.5
869.3691,559.1
869.4686,54.1
869.5917,772
869.6611,75.6
869.6878,72.4
869.7831,135.6
869.8478,254.1
869.8891,1297.5
869.9002,1632.4
869.9338,1946.6
869.9749,427.4
870.0318,2438.7
870.0731,1516.7
870.1089,1501
870.1655,1563.6
870.2063,2687.9
870.244,1739.8
870.2623,1908.6
870.2736,2044.4
870.3083,1421.7
870.3398,2262.1
870.3524,2642.4
870.3843,2747.5
870.4312,733.7
870.4624,76.4
870.5799,613.5
871.0193,178.3
871.6144,38.6
871.6595,959.1
871.9745,271.9
872.8238,1139.9
872.9341,529.5
873.4255,143.2
873.5281,22.1
873.6292,92
873.9956,780.9
874.4861,181.4
874.5507,769.2
874.8315,608.4
874.923,94.8
874.9566,42.9
875.0152,827.4
875.0552,425.3
875.5459,82.9
875.6713,59.6
875.7739,154.1
876.058,675.4
876.2967,93.9
876.5466,496.5
876.8603,90
877.4852,125.4
877.5978,515.2
877.6805,84.4
878.3778,1059.4
879.7638,117.1
880.4014,60.3
880.5117,549
880.9822,775.1
881.2768,589.4
881.3814,51.9
881.5248,117
881.7619,94.1
881.9358,282.6
882.9373,65.4
883.1562,869.7
883.4937,254.9
883.5287,518.6
884.1723,113.3
884.4025,955.9
884.5286,918.6
884.7127,45.1
885.0134,23.3
885.6348,154.1
885.7731,240.6
885.9186,66.1
886.4151,61.5
886.4982,123.2
887.0393,152.1
887.1026,250.3
887.2558,428.1
887.4932,69
887.6793,128.9
888.3359,49.2
888.3875,91.5
888.9829,795.2
889.4572,734.4
889.5831,108.9
889.731,383.2
890.6054,81.7
891.6774,616.8
892.8643,96.3
892.903,19
893.3526,469.9
893.4425,46.8
893.6401,73.9
893.8986,640.8
894.044,147.4
894.4129,931.6
894.4786,43.2
894.8266,569.7
895.1577,420.1
895.3814,37.4
895.4589,76.3
895.539,63.5
897.1101,593.8
897.2479,209
897.8224,223.5
898.0621,45.5
898.4761,61.3
898.7617,65
898.8179,697.7
899.1148,1509.1
899.4036,37.4
899.4689,50
899.7546,984.1
899.8714,250.2
900.418,251.1
900.4464,486.3
901.4285,826.5
901.8307,142.5
901.9918,1197
902.0446,890.6
902.3345,283.1
902.7753,421.4
903.2237,179.6
903.3837,46.1
903.6842,404.7
904.301,187.9
904.5238,19.8
904.6547,908.1
904.7858,476.5
904.8534,3309.7
905.2697,708.4
905.2826,727.4
906.2058,47
906.2448,1230.8
906.2753,169.6
906.4532,246.2
907.9555,118.5
908.3798,558.6
908.8456,907.6
908.9942,48.3
909.3966,906.1
909.9361,275.4
909.9982,568.8
910.1839,209.1
910.3105,717.1
910.337,899.4
910.3871,266.8
911.1142,773
911.1652,22.3
911.5429,105.6
911.5772,57
911.7101,20.5
912.7922,683.3
913.0894,861.9
913.4229,38.4
913.5329,319.7
914.5661,161.5
914.84,246.8
915.2265,88.5
915.459,67.3
915.6817,50.6
915.9584,136
916.1663,462.2
916.1919,103.1
916.8744,668.5
917.257,89.4
917.3018,353.4
917.5012,370.5
918.1749,137.5
918.4628,172.4
918.6192,231.3
918.7808,223.5
919.2063,862.9
919.4791,65.8
919.575,67.7
919.8679,394.8
920.7931,765.3
921.3505,710.7
921.5361,1952.7
922.6159,423.7
922.697,820
922.9247,816.9
923.2119,612
923.3674,733.4
923.7754,239.1
924.3659,119
924.6569,67.1
924.9649,58.3
925.1021,143.8
925.2235,74.4
925.3183,382.1
925.4357,308.6
926.4777,50.8
926.5415,85.3
926.6649,194.1
927.293,436.3
927.3311,666.5
927.6111,922.3
927.8133,42
928.6772,23.1
929.0016,899
929.8365,167.1
930.0096,49.3
930.1653,963.1
930.6923,105.1
930.8624,53.2
931.306,71.9
931.5913,87.2
932.3275,328.7
932.3583,38.7
932.6756,102.3
932.8197,698.4
932.8476,127.7
933.1822,66.6
933.8878,795.7
934.1883,81.9
934.4673,77.3
934.4984,60.5
935.0042,469.2
935.0794,2657.4
935.3721,333.2
936.068,193.5
936.3292,1710.8
936.3376,1696.7
937.0614,643.2
937.2112,73.1
937.465,152.7
937.5359,124.7
937.8878,44.4
938.4944,152
938.605,19.4
938.8103,218.4
938.9207,49
939.0614,400.7
939.3909,105.9
939.7784,420.3
940.1959,318.2
940.4845,563.8
941.9242,79.8
942.4074,167
942.6449,57.2
942.9188,829.6
942.9775,51.5
943.0856,425.3
943.1247,625.7
943.1942,30.5
943.2263,253.7
943.5077,786
943.8882,851.4
944.3125,626.6
944.8691,729.9
944.9017,622.2
945.2752,37.5
945.3035,18.1
945.6239,911.6
945.8692,128.2
945.9384,249.8
946.2798,897.1
946.4632,23.9
946.5393,61.1
947.4079,1728.4
947.4828,661.2
947.6713,56.2
948.4932,174.7
949.0361,136
949.0855,489.3
949.1221,61.6
950.0718,1993.7
950.1972,145.8
950.5041,150.2
950.6367,67.2
951.0463,808
951.1498,717.7
951.8814,91.4
952.2,91.7
952.6534,43.3
952.8057,454.9
953.0913,141.2
953.4677,58.8
953.7944,390.9
953.8494,138.5
954.4612,207.1
954.7011,46.7
954.8581,846.4
954.9972,463
955.2267,158.4
955.2982,134.7
955.5371,84.2
955.7428,819
956.521,559.9
956.6016,101
956.6486,20.5
957.1518,423.9
957.239,1210.1
957.3751,166.2
957.6503,930.7
957.698,215.5
957.9806,415.5
958.164,157.1
958.4704,248.2
958.7748,831.4
959.5399,967.1
960.1529,427.5
960.202,56.3
960.3899,305.8
960.8648,22.4
961.2379,71.1
962.1133,556.8
962.2205,103.3
962.9318,316.2
962.9936,405.6
963.1532,94.8
963.1769,99.1
963.4443,212.1
963.9534,319.7
964.5592,390
964.6717,514.2
965.1135,650.5
965.174,1040.2
965.2201,740
965.2395,826.2
965.954,547.6
966.1163,105.4
966.2565,374
966.4046,338.9
966.5183,90
966.8173,768.5
966.8656,53.9
967.0584,62.2
967.8776,239.1
968.0702,674.4
968.2284,51.4
968.402,703
969.3416,79.3
969.6814,108.1
969.8411,747.8
969.9203,150.6
970.1109,59.7
970.3491,400.6
970.7527,429.8
970.8339,982.9
970.9411,421.3
971.6779,39
971.722,618.4
971.7638,134
972.2615,103.8
974.2612,423.2
974.9963,131.7
975.2241,403.5
975.678,112.8
975.9137,190.7
976.1744,122.3
977.1653,145.7
977.5712,21.6
977.839,327.6
978.5099,668.6
978.6299,23.3
978.6848,429
978.6968,524
978.9022,58.4
979.3457,65.9
979.4174,600.8
979.7013,447.2
979.77,97.9
979.9956,127
980.0437,592.7
980.2615,2220.1
980.4793,54.6
980.6724,705.9
980.8207,481.9
981.1755,115.4
981.375,66.1
981.4502,55.8
981.5949,411.1
981.7322,1003.2
982.2201,26.2
983.3665,2674.8
983.5915,1281.7
983.648,871.8
983.977,554.3
984.0094,223.5
984.4548,92.7
984.5504,360.9
984.5934,285.9
985.149,384.5
985.4193,146.4
986.0692,986.5
986.2609,46
986.6189,1503.8
987.197,66.3
988.1983,810.9
988.6395,22.7
988.9565,219.9
989.1265,469.8
989.2004,377.9
989.3251,180.8
989.3344,172.7
989.3492,86.9
989.6892,54.2
989.7973,584.2
990.1252,60.4
990.8102,99
991.2798,83.7
991.4974,59.4
991.5794,222.8
991.9358,1036.5
992.4122,181.1
992.7857,771.7
993.8237,1102.1
994.3568,94.1
994.47,284.1
995.0384,263.8
995.1525,84.3
995.2546,108.9
995.6657,61.8
996.1429,86.1
996.568,75.9
997.1988,57.3
997.2816,17.5
997.6845,70
998.3541,23.6
998.3945,138.2
998.7762,186.9
998.9917,58.7
999.8727,179.8
