SPECTRUM - MS,
lav_806.RAW,
FTMS - p ESI Full ms [50.00-1000.00],
Scan #: 1-42,
RT: 0.01-1.96,
AV: 42,
m/z,Intensity

50.0014,16
50.0119,29.2
50.0153,35.9
50.0183,31.2
50.0228,18.8
50.0278,41.5
50.041,32.3
50.083,23.2
50.0881,40.9
50.1378,44.1
50.1402,38.9
50.1575,46.2
50.1679,30.2
50.1768,31.8
50.1788,43.6
50.1924,50.6
50.1941,24.5
50.1973,45.3
50.2144,37.5
50.2323,67.5
50.238,27.9
50.2414,76.8
50.2492,34.7
50.2569,57
50.2799,37.9
50.2923,39.2
50.3291,66.9
50.3571,19.2
50.3643,61
50.3728,55.3
50.3927,38.6
50.4147,32.3
50.4218,30.5
50.427,50.8
50.4403,51.9
50.4713,54
50.4723,28.3
50.4771,37.8
50.5133,38.6
50.5137,33.5
50.517,70.3
50.5229,26.9
50.5406,42.4
50.5439,44.7
50.5463,44.1
50.5616,17.8
50.5836,55.9
50.5874,44.8
50.5903,102.8
50.5907,53.8
50.5909,42.7
50.591,32.4
50.592,37.6
50.5939,34.1
50.602,26.9
50.6024,33.1
50.6128,28
50.6168,32.2
50.6631,40.6
50.6636,38.9
50.6706,16.9
50.6733,70
50.6802,40.9
50.6821,28.2
50.6872,42.2
50.6945,42.7
50.7173,34.6
50.7177,34.7
50.7338,30.5
50.7386,31.9
50.7531,38
50.7574,40.1
50.7587,22.4
50.76,57.7
50.7658,37.9
50.7668,46.7
50.7755,46.1
50.7805,31.7
50.8089,27.2
50.8261,36.7
50.8302,77.3
50.837,59.7
50.8418,32.3
50.8428,48.9
50.844,25.9
50.848,35.2
50.8631,64.2
50.8654,19.8
50.8686,72.3
50.8711,44.4
50.8769,34.5
50.8785,31.9
50.8833,56.5
50.8958,28.8
50.9113,23.2
50.9434,47
50.9492,37.1
50.9534,32.7
50.9725,42.4
50.9811,38
51.0011,23.8
51.0135,30.5
51.0364,37.7
51.0399,36.4
51.0569,64.4
51.0833,30.3
51.0978,52.1
51.0986,39.4
51.1029,32.9
51.1066,30.2
51.1245,45.6
51.1291,32.9
51.1328,45.2
51.1482,44.5
51.1494,53.2
51.1586,60.7
51.1728,34.7
51.1751,30
51.1784,61.7
51.1951,28.3
51.209,33
51.2107,55.2
51.2441,43.9
51.2543,41
51.2701,72.5
51.2752,59.1
51.2807,32
51.2839,42.3
51.2849,52.8
51.2941,43.4
51.2988,45.3
51.3012,36
51.3238,21.9
51.3304,32.5
51.3325,40.7
51.3464,31.9
51.3699,33.8
51.3963,59.6
51.3997,36
51.4066,29
51.4157,63.3
51.4276,36.5
51.4352,48.8
51.4545,30.1
51.4767,39
51.478,55.9
51.501,59.8
51.5172,34.5
51.5432,27
51.5676,72.2
51.5795,31.9
51.5815,54.6
51.5926,75.4
51.598,48.1
51.6106,50.2
51.6147,33.3
51.6174,72.4
51.6236,39.5
51.6312,43.2
51.6369,34.2
51.6671,41.4
51.6981,43.4
51.7153,33.9
51.719,65.2
51.7474,34.6
51.7536,22.2
51.7589,40.5
51.7702,57.4
51.7743,47
51.7772,42.6
51.7866,39.8
51.7945,45.4
51.8019,24.9
51.8034,37.2
51.8045,30.6
51.825,67.6
51.8288,40.7
51.8388,52
51.8404,28.9
51.856,30.2
51.8571,43.5
51.8639,35.4
51.8684,54
51.8696,43.1
51.8835,29.5
51.8985,31.2
51.905,34.9
51.9092,49.3
51.9151,35.9
51.9322,44.7
51.9367,38.3
51.9484,49.8
51.9589,29.5
51.968,50.3
51.9723,28.5
51.9775,57.6
51.98,29.5
51.9856,43.8
51.9877,63.2
51.992,52.6
52.0327,36.3
52.0331,31.7
52.0389,50.4
52.0422,43.2
52.0634,32.4
52.0738,32.6
52.106,62.1
52.1314,62.1
52.1413,39.7
52.144,45.7
52.1488,29.7
52.162,24.2
52.1702,36.8
52.1958,72.6
52.2091,51.1
52.2301,38.4
52.234,45.1
52.2426,33.1
52.2448,65.8
52.2697,41
52.2713,54.2
52.2733,30.8
52.2858,68.7
52.2991,40.7
52.3018,59.6
52.3043,35.1
52.3345,33.8
52.3668,47.9
52.368,36.7
52.3856,39
52.3937,16.9
52.3965,30.1
52.3997,36.4
52.4071,29.6
52.425,54.1
52.4341,37.7
52.441,52.9
52.4887,31.8
52.4927,53.5
52.5363,44.1
52.5429,32
52.5712,42.3
52.5721,33.6
52.577,33.6
52.601,46.1
52.6031,31
52.6077,81
52.6083,38.7
52.6159,37.1
52.6293,30.9
52.6655,68.2
52.6844,25.4
52.6946,28.2
52.7135,56.4
52.721,37.4
52.7447,63.1
52.7511,54.4
52.7594,34.5
52.7621,30.2
52.7624,29.7
52.7655,82.4
52.7662,241.7
52.7666,458.1
52.7669,254.1
52.7674,47.5
52.7678,273.2
52.7685,156.7
52.7688,194.2
52.7699,254.9
52.7705,45.3
52.7721,27.5
52.7796,37.9
52.786,36.1
52.797,69
52.8011,64.6
52.803,45.9
52.82,31.2
52.8221,33
52.8414,27.5
52.8427,38.4
52.8469,64.1
52.8592,60.5
52.8926,29.9
52.8933,41.7
52.9059,33.5
52.9071,28
52.9087,36.6
52.9111,35.6
52.9127,20.6
52.9154,34.5
52.919,46.5
52.9231,35.9
52.96,47.7
52.9657,25.4
52.9664,41.8
52.9831,69.5
52.9896,37.3
52.9904,21.9
52.9917,48
52.9975,37
53.0237,63.2
53.0327,42.9
53.0331,34.6
53.0405,27.9
53.0412,40.7
53.0551,41.9
53.0638,28.7
53.0643,45.2
53.0667,30.7
53.1104,44.2
53.1152,35.9
53.1299,60.5
53.1345,57.7
53.1663,62.7
53.1752,42.1
53.1979,82.3
53.1988,50.8
53.2111,56
53.2223,20.9
53.2246,68.9
53.2443,18.5
53.273,45.3
53.2848,54.6
53.3011,102.2
53.3019,33.2
53.3039,32.3
53.3107,46.5
53.3112,64.7
53.3289,35.7
53.3592,40.7
53.3679,44.8
53.3706,39.6
53.383,46.6
53.3985,22.5
53.4139,29.2
53.4163,16
53.4211,34.6
53.4315,97.6
53.4332,43.2
53.45,40.4
53.4533,48.9
53.4552,28.9
53.4623,44.8
53.4644,33.6
53.4655,59.4
53.4683,28.1
53.4699,38.2
53.4734,34.3
53.476,40.8
53.488,30.7
53.5525,57.7
53.5529,25.2
53.5661,52.5
53.5709,60.2
53.5966,41.8
53.6047,19.4
53.6071,47.9
53.6165,36
53.6178,37
53.6197,28.1
53.6279,39
53.645,43.7
53.6809,38
53.685,59.4
53.6879,47
53.7183,29.1
53.722,27.7
53.7349,22.3
53.7383,32.4
53.7386,18.7
53.7459,56.9
53.7486,36.1
53.7901,31.3
53.7938,36.5
53.8011,27.8
53.803,42.8
53.8063,41.8
53.8146,19.9
53.8188,52.6
53.8316,28.3
53.8322,46.8
53.846,30.3
53.8854,33.5
53.9205,28.3
53.929,33.7
53.9329,31.9
53.9352,31.6
53.937,53.3
53.9492,73.3
53.9498,33.9
54.0195,42.6
54.0405,24.8
54.0471,30.3
54.0625,30
54.0699,55.8
54.0701,85.4
54.0893,29.7
54.0935,39.5
54.1219,49.7
54.1247,27.3
54.1352,49.3
54.1518,41
54.1561,29.9
54.1649,56.6
54.1822,18.6
54.1848,27.5
54.2149,42
54.2354,33.5
54.2478,34.7
54.2514,33.9
54.291,31.4
54.3016,57
54.3069,48
54.3126,49.2
54.3215,47
54.325,40.5
54.3311,38.9
54.3339,26.7
54.3361,30.3
54.3437,29.9
54.3616,44
54.3636,54.1
54.3771,20.1
54.3836,28.6
54.4332,56.3
54.4375,34.3
54.4424,58
54.4543,65
54.4594,40.2
54.4681,21.6
54.4774,33.6
54.5161,29.9
54.5208,25.8
54.5369,33.1
54.5474,32.7
54.5522,43.9
54.5551,36.3
54.5615,30.2
54.572,50.9
54.5864,37.8
54.5903,17.2
54.596,25.8
54.6179,50.9
54.6336,54.6
54.6561,51.7
54.6634,27.7
54.6854,44.5
54.7125,47.4
54.7221,19.6
54.7243,48.9
54.7282,46.3
54.7626,33.7
54.7633,65.7
54.7645,34.7
54.7878,36
54.7893,42.5
54.7963,25.1
54.8076,43.5
54.8288,29.1
54.8303,70.9
54.8376,35.6
54.852,27.7
54.8791,38.8
54.9044,42.5
54.9335,47
54.9546,35.5
54.9614,62.6
54.9641,35.5
54.9815,37
54.9848,36.6
54.9971,33.5
55.0258,43.7
55.0319,26.3
55.039,44.7
55.0525,39.7
55.06,40.9
55.0675,39.8
55.0681,45.4
55.0735,26.1
55.0781,50.8
55.0852,73.2
55.101,34.4
55.1108,32.8
55.113,48.6
55.1173,36.7
55.1427,46.8
55.1451,52.7
55.1537,30.1
55.1549,37.4
55.159,41.2
55.17,41.9
55.1936,19
55.2041,38.4
55.2086,38.7
55.21,16.5
55.2418,38.9
55.2436,49.4
55.2463,31.4
55.2664,34.1
55.2723,51.4
55.2845,20.9
55.2862,45.2
55.2868,29
55.2948,46
55.3021,41.2
55.3081,32
55.3105,28.1
55.3158,70.1
55.3252,30.9
55.3458,35.5
55.3565,58.3
55.3611,28.8
55.3633,35.5
55.3638,14.4
55.3697,17.9
55.38,30.8
55.3853,40.4
55.3939,34.5
55.4273,51.6
55.4275,76.4
55.4322,28.2
55.4366,45
55.4442,52.7
55.4568,41.6
55.4649,31.6
55.486,37.4
55.507,42.6
55.5311,45.3
55.5342,44.8
55.581,32.6
55.5828,37.8
55.5849,35.8
55.5909,66.1
55.6149,58.4
55.6176,50.1
55.6204,37.8
55.6586,40.2
55.6934,48.3
55.701,70.3
55.7103,30.8
55.7185,18.2
55.7345,31.6
55.7403,45.5
55.7464,38.2
55.7505,51.4
55.7507,47.9
55.7547,26.8
55.7662,40
55.7672,81.2
55.7735,14.4
55.7782,38.1
55.7805,59.2
55.7847,20
55.7878,33.8
55.7892,38.5
55.7952,32.6
55.7972,30.2
55.8317,40.1
55.8342,31.6
55.8884,48.8
55.9,41.2
55.9019,48.2
55.9121,48.6
55.9149,21
55.9228,30.2
55.9364,43
55.9374,31.6
55.9425,31.4
55.9474,30.9
55.9488,51.5
55.9533,56.3
55.9655,72.1
55.9676,31
55.9694,41.3
55.9732,41.5
55.9751,26.7
55.9912,64.7
55.9962,27.7
55.9995,34.7
56.0159,51.2
56.0195,62.4
56.0396,39.4
56.0444,47.4
56.0476,75.9
56.0566,34.3
56.058,35.2
56.082,33.2
56.0847,33.7
56.0903,54.9
56.1028,24.3
56.1051,44.8
56.1087,27.8
56.1127,40.7
56.1143,47.4
56.1428,32.3
56.1653,30.1
56.1885,13.8
56.1894,31.8
56.2057,42.5
56.2067,44.7
56.21,31.7
56.2136,26.6
56.2197,28.9
56.2211,37.3
56.2222,30.6
56.2225,33.6
56.2467,26.6
56.2488,40.4
56.3004,40.4
56.3014,36
56.3028,39.6
56.3038,20
56.3361,33
56.3367,44.1
56.3463,35.2
56.3483,37.3
56.3531,65.8
56.3569,30.6
56.3692,44.8
56.3781,49.1
56.3821,37
56.4072,33.3
56.4175,31.9
56.4262,29.9
56.4365,29
56.4439,36.5
56.4618,42.3
56.467,32.4
56.4676,38.4
56.4707,26.4
56.4716,37.7
56.4854,42.5
56.4899,35.1
56.5005,27
56.5355,59.7
56.5384,29.6
56.5501,55.5
56.5658,32.1
56.5662,63.9
56.5669,27.9
56.5755,34.7
56.582,31.6
56.5828,29.3
56.5894,41.2
56.5933,25.3
56.596,34.1
56.5989,37.6
56.6006,36.7
56.6055,38.6
56.607,25.8
56.6455,61.2
56.653,66.2
56.6714,54.7
56.6721,31.4
56.6809,35.5
56.6822,34.5
56.689,28.9
56.7026,37.2
56.7216,36
56.7252,48.6
56.7326,47.1
56.7423,33.1
56.7658,53.6
56.7743,44
56.7827,30.9
56.7934,43.1
56.8038,40.6
56.8122,28.3
56.8229,30.8
56.8351,38.2
56.8649,28
56.9167,30.2
56.9317,41.7
56.9389,31.5
56.9418,38.6
56.9431,54
56.9435,36.7
56.9512,28.9
56.9633,31.2
56.9718,66.1
56.9872,36.2
56.9949,42.3
56.9962,51.3
57.0097,17.3
57.0324,30.7
57.0336,50.6
57.0343,1042.5
57.035,57221.9
57.0356,640.4
57.065,48.7
57.0799,35.9
57.0842,32.3
57.0991,48.5
57.1102,32.3
57.1262,36.6
57.1333,45.6
57.1519,30.3
57.1524,34.8
57.1718,17.2
57.1943,36.5
57.2033,39.7
57.2196,64.8
57.22,40.4
57.2231,35.8
57.228,83.4
57.2282,61.1
57.2465,37.1
57.2544,43.1
57.2559,46.5
57.267,56.3
57.2919,24.5
57.3073,30.6
57.31,28.5
57.3395,39.6
57.349,32.6
57.3617,29.3
57.3704,48.2
57.3754,55
57.384,34.5
57.4011,30.2
57.4106,43.7
57.4307,37
57.4442,40.2
57.4506,36
57.4525,17.3
57.4558,59.7
57.4604,59.4
57.461,32.4
57.4709,71.7
57.4768,65.3
57.4778,57.5
57.4791,37
57.4888,39.4
57.513,46.1
57.514,55
57.5281,27.2
57.5332,31.3
57.5459,32
57.5508,47.8
57.5655,36.6
57.5696,39.8
57.5739,36.1
57.582,29.6
57.5904,15.2
57.592,41.4
57.5967,27.3
57.607,28.5
57.6127,101.3
57.6139,37.3
57.6297,33.9
57.6318,47.7
57.6445,35.5
57.6474,29.1
57.6653,31.5
57.6957,30.5
57.7107,28.3
57.7241,35.1
57.726,59
57.7336,46.1
57.7666,38.3
57.7769,29
57.7788,28.8
57.832,32.4
57.8333,36.2
57.8448,16.7
57.8482,33.4
57.8566,48.9
57.8841,40.6
57.8983,45.5
57.8987,34.9
57.9019,15.4
57.905,45.9
57.9266,34.9
57.9417,29.8
57.9519,31.9
57.9548,56.1
57.9831,64.2
57.9845,33.2
58.0023,41.1
58.0155,35.5
58.0177,31.1
58.03,44.3
58.0383,1086.3
58.0499,31.5
58.0543,17.2
58.0597,16.4
58.0954,39.9
58.0962,28.1
58.0986,57.7
58.1105,30.7
58.1189,62
58.1881,32.7
58.2034,45.2
58.2066,40.8
58.212,50.7
58.216,36.1
58.2162,36.7
58.2474,46.9
58.248,45.8
58.258,26.4
58.2634,31.8
58.28,45.9
58.2813,42.2
58.286,39.4
58.288,52.1
58.2887,27
58.3031,16.4
58.3048,34.3
58.3085,53.4
58.3126,63.8
58.3477,59.9
58.3487,37.8
58.3544,32.2
58.3769,61.6
58.3882,45.3
58.3918,48.5
58.3978,32.6
58.4227,29.8
58.4373,30.1
58.4503,47.8
58.4594,50.1
58.4838,34.2
58.5332,43.7
58.5508,36.3
58.5709,33.8
58.5915,60.2
58.6008,37.8
58.6095,54.1
58.611,52.8
58.6134,37.9
58.6238,30.4
58.6358,34.2
58.6401,60.1
58.6551,36.8
58.6568,58.5
58.658,41.5
58.6605,36.2
58.6855,34.7
58.6925,42.3
58.7076,40.3
58.7092,42.1
58.7257,15.6
58.7276,47.9
58.7478,37.2
58.7612,31.2
58.7651,42.3
58.7841,36.4
58.8617,40.3
58.8646,30.6
58.875,28.5
58.8844,38.2
58.9009,33.2
58.9016,47.8
58.9159,20.7
58.9256,40.9
58.9291,51.1
58.9324,31.5
58.9346,38.9
58.9425,46.3
58.9511,27.1
58.957,32.8
58.9722,30.4
58.9758,18.2
58.9809,34.8
59.0019,44
59.0142,2495.2
59.0208,34.8
59.0245,50
59.0506,2406.4
59.0611,36.4
59.0836,27.3
59.0876,49.2
59.0954,40.9
59.0982,29.9
59.1341,47.3
59.1347,43.7
59.1434,43.6
59.1445,54.5
59.1477,34.3
59.1644,56.2
59.1756,33.2
59.1853,26.2
59.1923,56.6
59.1936,39.4
59.2022,48
59.204,27.2
59.2191,64.4
59.2396,30.5
59.2451,28.4
59.2468,21.1
59.2523,40.8
59.2602,34.3
59.2653,60.4
59.2921,50.5
59.296,30
59.3076,64.7
59.3134,48.5
59.3281,36.7
59.3409,29.9
59.3451,70.3
59.3498,50.5
59.366,46.5
59.3729,29.9
59.4112,15.5
59.4178,42.3
59.4231,39.7
59.4246,18.3
59.4248,19.1
59.4369,52.6
59.4523,33.6
59.4585,33.2
59.466,30.4
59.4699,69.3
59.478,36.9
59.4855,41.3
59.496,43.4
59.5059,42
59.5118,69.4
59.5141,35.3
59.5159,44.2
59.5293,51.7
59.5361,36.8
59.5457,38.5
59.5506,44.7
59.5536,14.1
59.5765,38.7
59.5848,45.8
59.5864,42
59.5904,69.1
59.6003,44.7
59.6324,27.3
59.6366,41.2
59.6379,35.4
59.6706,68.9
59.6751,24.4
59.6901,27.1
59.7054,47.3
59.7266,49.7
59.7286,43.9
59.7312,42.1
59.7379,47.5
59.7446,31.1
59.746,54.4
59.7478,68.7
59.7604,34.1
59.7619,51.9
59.7691,26.7
59.7757,56.2
59.7814,37.9
59.7872,40.7
59.8013,27
59.8047,80.3
59.826,33.8
59.8438,52.5
59.8562,34.2
59.8644,29.5
59.8941,53
59.9105,38.1
59.9382,29.2
59.955,61.9
59.9734,41.3
59.9791,28.9
59.9889,83.5
59.9912,41.3
59.9927,60.2
60.0001,42.7
60.0032,33.7
60.0062,40.6
60.031,15.7
60.0356,45
60.0494,60.8
60.054,37.5
60.0687,44.2
60.0747,41.7
60.0859,21.9
60.1486,45.6
60.2132,43.6
60.2155,34.8
60.2253,38.7
60.2338,48.3
60.2361,35.7
60.2506,47.2
60.2635,28.6
60.2644,39.9
60.2687,29.6
60.2892,30.8
60.2901,64.9
60.2912,41.8
60.2937,30.4
60.3088,41.4
60.3171,55.1
60.3306,44.1
60.3335,72.8
60.3668,49.5
60.3775,43.6
60.3807,66.9
60.3825,62.4
60.3857,95.3
60.3974,19.6
60.3984,57.5
60.4118,25.5
60.4132,38.5
60.415,65.4
60.4276,90.1
60.4382,17.3
60.443,30.6
60.4595,27.4
60.4632,34.5
60.4673,47.7
60.4683,62.9
60.4946,29.5
60.5058,22
60.5069,29.9
60.5202,89.3
60.5215,95.7
60.5405,58.6
60.547,35.2
60.5607,35
60.5647,56.1
60.6023,32.5
60.6124,31.8
60.6242,69.2
60.6274,30.2
60.6502,26.7
60.679,37.8
60.6956,86.8
60.6989,31.5
60.7163,43.2
60.7207,41.4
60.7257,14.8
60.7276,38.6
60.7462,27
60.7488,31.9
60.7496,31.9
60.7582,46
60.7739,39.6
60.7752,73.6
60.7852,33.8
60.7875,34.8
60.7934,39.3
60.8106,34.7
60.8116,44.5
60.8554,37.7
60.888,32.3
60.9276,38.6
60.9458,45.7
60.9533,37.8
60.9571,41.6
60.9672,37.2
60.9703,47.1
60.9913,34.6
60.9935,1108.6
61.0016,58.4
61.0346,40.9
61.0376,31.9
61.0634,44.6
61.091,37.4
61.0927,27.9
61.0935,40.6
61.1066,41.5
61.1142,30
61.1291,52.7
61.131,46.6
61.1386,62.9
61.1469,35
61.1617,45.2
61.1702,30.6
61.1736,31.5
61.1811,33.5
61.1928,33.1
61.1952,35.4
61.1963,32.4
61.2324,39.5
61.2517,84.1
61.2681,35.1
61.2696,73.5
61.2729,41.7
61.28,31.5
61.2897,43.6
61.2964,46.6
61.3154,63.2
61.3246,35.7
61.3302,58.7
61.3331,40.5
61.3496,39.6
61.351,34.2
61.3554,42.4
61.3642,44.6
61.3698,32.4
61.3776,39.1
61.3897,16.8
61.4018,36.2
61.404,37.2
61.4168,40.5
61.4284,42.5
61.4346,44.9
61.4394,37.8
61.4439,45.6
61.4498,36.2
61.4561,57.4
61.4617,62.2
61.4997,32.3
61.5036,67.3
61.5115,33.9
61.5253,65
61.5263,30.1
61.5376,28.1
61.5456,22.5
61.5571,37.9
61.5605,53.9
61.5708,36.2
61.5779,25.9
61.6334,49.9
61.6477,63
61.6557,42.8
61.6589,38.4
61.6679,27.1
61.6848,34.9
61.6961,46.1
61.7121,32.8
61.7152,37.5
61.7176,14.8
61.7214,38.6
61.7314,27.2
61.7348,71.9
61.7406,36.1
61.7531,33.1
61.7538,29.9
61.7566,17.2
61.7731,30.9
61.8154,34.3
61.8177,35
61.8542,33.6
61.8809,30.8
61.9046,40.5
61.9257,29.9
61.9338,34.6
61.9483,59.8
61.9545,42.7
61.9557,42.1
61.9822,23.2
62.0328,29.3
62.0587,65.5
62.072,39.8
62.0768,53.5
62.0845,28.2
62.0905,33.4
62.0918,51.5
62.0974,33.9
62.1052,35.7
62.1207,54.1
62.1296,28.1
62.1393,34.6
62.1483,27.9
62.1663,36.5
62.1723,26.4
62.1885,60.9
62.1895,81.8
62.2303,40.3
62.2433,45.6
62.255,34.9
62.2745,37.2
62.2881,28.6
62.3075,35.7
62.3116,17.7
62.326,29.8
62.3412,64.8
62.3541,40.3
62.3608,65.4
62.3679,33.9
62.3693,66.1
62.3712,83.8
62.3915,36
62.398,68.9
62.4242,41.3
62.4366,59.1
62.4377,33.2
62.4527,58.8
62.4712,26.7
62.5035,42.7
62.5229,35.9
62.5269,32.3
62.5478,82.9
62.5549,34.8
62.5909,50.8
62.5935,60.8
62.6131,30.2
62.6472,40.4
62.6588,38.9
62.6613,36.9
62.6655,39.8
62.68,45.9
62.6816,27.6
62.6828,46.5
62.7086,50.8
62.7115,37.9
62.7332,48
62.774,35.7
62.7744,57.4
62.7754,40.2
62.7786,33.9
62.7814,50
62.7888,43.9
62.7955,36.7
62.8021,33.3
62.8033,36.3
62.8067,51.7
62.8172,33.8
62.8208,38.4
62.8257,36.8
62.8263,38.5
62.8271,53.7
62.8349,27.3
62.8564,66.4
62.8959,28
62.928,36.3
62.9422,37.8
62.9692,40.1
62.9757,37.2
63.0018,38.8
63.025,35.9
63.0266,44.4
63.0278,36.3
63.0291,38.3
63.0328,55.3
63.0574,32.7
63.0681,41
63.076,34.6
63.0774,29.1
63.0784,24.5
63.0867,65.6
63.09,30.3
63.1144,65.9
63.1203,34.7
63.1321,32.9
63.1415,61
63.1636,38.4
63.1742,35.3
63.1939,39.5
63.2005,36.2
63.2091,62.2
63.2129,36.9
63.2155,31.4
63.2315,37.6
63.2394,28.2
63.2503,33.7
63.2504,33.2
63.2673,32.3
63.2704,35.4
63.2878,33.9
63.2888,40.6
63.2967,33.2
63.3064,34.4
63.318,36.8
63.3213,31.5
63.3276,31.4
63.3292,85.2
63.3805,53.2
63.4063,47.9
63.4183,63.6
63.4249,35.6
63.4337,28.9
63.4479,49.5
63.4517,53.5
63.4536,38.5
63.4715,17.1
63.4729,16.8
63.4747,32.3
63.4822,28.9
63.4851,26.3
63.4936,43.5
63.4974,30.2
63.5107,35.3
63.5123,42.4
63.5135,38.9
63.5478,43.2
63.5521,34.1
63.572,29.9
63.593,37.6
63.6186,31.9
63.6425,37.4
63.664,59.8
63.672,33
63.6777,30.1
63.6873,29.1
63.6955,37.6
63.7031,51.2
63.7157,16.4
63.7321,34.5
63.7783,34.7
63.7893,33.5
63.8023,62.3
63.8048,31.5
63.8102,32.1
63.8408,46.9
63.8596,36.5
63.8622,47.6
63.8858,72.2
63.8887,41
63.9268,42.8
63.9294,47.8
63.9329,33.1
63.9529,39.7
63.9563,37.4
63.9582,19.3
63.9621,41.5
63.967,40.8
63.9848,40.3
63.9965,32.6
63.9985,18
64.0036,43.5
64.0043,41.9
64.02,25
64.0216,33.7
64.0609,53
64.0768,32.1
64.0793,39.6
64.1113,55.6
64.1177,56
64.1349,39.8
64.136,43.6
64.1386,39.4
64.1469,42.3
64.164,61.8
64.1899,40.8
64.2261,26.3
64.2476,34
64.2557,45.8
64.272,15.5
64.2745,52.4
64.2875,26
64.2943,19.3
64.3216,15.5
64.337,30.7
64.3386,36.8
64.3535,33.7
64.3766,40.2
64.3948,55.9
64.4272,44.4
64.4308,43.9
64.432,30.9
64.4365,50.9
64.4966,34.5
64.4983,96.7
64.4991,37.9
64.5125,61.3
64.515,54.7
64.5316,25
64.5385,41
64.5716,39.1
64.5862,49.3
64.59,17.8
64.5947,44.6
64.6012,39.3
64.6056,40.3
64.6238,40.1
64.6631,34.2
64.6903,28.9
64.7114,32.9
64.7317,29.6
64.732,30.5
64.7471,42.2
64.7534,29.6
64.7561,39.7
64.7612,44.6
64.7905,65.9
64.7923,42.5
64.8039,56.3
64.8235,40.8
64.8427,31.9
64.8458,44.4
64.8485,23
64.9044,43.1
64.9125,38.7
64.9139,28.4
64.9258,67.4
64.9312,35.7
64.9419,15.5
64.9485,29.1
64.9637,52.8
64.9705,37.9
64.9722,67.5
64.9849,34.7
65.0348,29.4
65.0466,20.8
65.0705,62.1
65.0769,47
65.0839,21.9
65.1109,45.8
65.1159,64.4
65.1195,39.6
65.1466,36.3
65.1625,54
65.1777,49
65.1981,71.7
65.205,24.9
65.224,46.5
65.2284,86.7
65.2398,71.2
65.2405,42
65.2519,49.9
65.2719,23.5
65.2918,31.9
65.2926,83.1
65.3069,42.6
65.3159,48.3
65.3168,29.5
65.3507,14.9
65.3529,25.7
65.3633,71.8
65.3653,41.5
65.3722,40.7
65.3732,41.9
65.3828,31.6
65.4125,34.7
65.4241,28.5
65.4423,26.5
65.4667,44.2
65.477,36.3
65.4827,33.9
65.4906,33.4
65.5069,66.3
65.5167,32.7
65.5236,31.7
65.542,39.9
65.551,33.7
65.5527,51
65.5533,37.2
65.5548,51.9
65.5689,71.2
65.5694,34.5
65.648,16.3
65.6489,102.7
65.6551,72.7
65.6809,70.8
65.6838,48.6
65.7052,33.4
65.712,35.6
65.7448,35.5
65.751,27.8
65.7649,31.2
65.7812,28.1
65.7968,35.7
65.8095,38.7
65.8285,37.7
65.8292,16.3
65.8367,35.8
65.8467,37.1
65.8483,15.7
65.8521,30.2
65.8706,45.9
65.8739,44.9
65.8873,30.5
65.904,53.7
65.9047,38.6
65.9079,37.3
65.912,52.6
65.9265,63.1
65.9483,39.9
65.9513,40.8
65.9531,35.1
65.9753,32.2
65.991,43.5
66.0136,25.9
66.0158,49.7
66.0168,30.5
66.0203,20.4
66.0335,30.9
66.0558,48.7
66.0733,57
66.076,26.5
66.0922,53.5
66.1255,31.2
66.1374,39.8
66.1432,43.3
66.1439,26.9
66.1563,28.8
66.157,45.7
66.1593,27.7
66.1622,34.3
66.2028,36.1
66.204,38.5
66.2321,40.9
66.2354,36.4
66.236,29
66.2376,31.9
66.241,38.1
66.2432,57.3
66.2722,29.3
66.3096,43.7
66.3243,25.7
66.3415,35.4
66.3717,34.1
66.3755,33.6
66.4031,37.9
66.408,31.2
66.4218,33.7
66.448,33.9
66.4597,50.8
66.4653,45.8
66.4809,33.1
66.5189,32.6
66.5505,68.9
66.5768,40.6
66.5904,34.6
66.5956,53.5
66.6253,26.6
66.6286,14.2
66.6416,38
66.6689,65
66.6936,23.4
66.7015,55.1
66.7096,38.4
66.7172,54.6
66.7245,16.7
66.7264,64.5
66.7283,42.2
66.7287,65.4
66.7314,32.1
66.7487,32.4
66.76,28.8
66.7726,50.4
66.7774,30.2
66.7905,67.5
66.823,35.4
66.8321,17.7
66.8347,64.4
66.8454,32.8
66.8534,33.9
66.8568,37.2
66.8596,48.7
66.8677,39.6
66.8699,17.9
66.9018,48.1
66.9225,33.6
66.9242,39.3
66.936,56.8
66.9839,77
66.9852,43.6
67.0087,39.9
67.0138,26.8
67.0358,46.1
67.0412,15.8
67.0429,52.2
67.0482,31.9
67.0488,66.7
67.0505,26.2
67.0671,37.9
67.0682,31.6
67.0916,32.3
67.0918,45.3
67.1419,35
67.1438,37.7
67.158,31.8
67.1778,15.3
67.1831,40.4
67.1921,31.7
67.242,29.9
67.244,37
67.2456,58.6
67.2547,42.4
67.2588,16.7
67.3101,48.9
67.3117,44.9
67.319,18.1
67.3301,29.2
67.3401,31.2
67.344,32.4
67.3509,41.7
67.3543,47.5
67.3692,41.1
67.373,26.6
67.3813,30.1
67.3844,37.5
67.403,50.8
67.4121,28.8
67.4157,28.2
67.4265,39.4
67.4329,38
67.4371,63.3
67.4416,28.6
67.4456,37.9
67.4744,32.1
67.4832,21
67.4862,30.2
67.494,41.8
67.502,33.6
67.505,35.1
67.5081,40.7
67.5207,34.8
67.5294,23.8
67.5393,36.1
67.5467,35.5
67.5865,29.1
67.6249,43.1
67.6278,52.8
67.6393,63
67.67,32.1
67.7348,33.6
67.7393,63.7
67.7583,33.3
67.7675,21.2
67.7723,41.1
67.8304,38.9
67.8375,29.6
67.8395,38.6
67.8433,38.6
67.8462,34.3
67.8517,61.3
67.8582,31.6
67.8636,17.5
67.8789,62.5
67.8885,39.8
67.8931,43.3
67.8972,38.2
67.8997,30.6
67.9011,69.4
67.9299,71
67.9598,37.2
67.9614,53.7
67.9808,50.3
67.9922,31.7
67.9953,46.1
68.0008,46.5
68.0084,38.7
68.0126,50.5
68.0146,458.3
68.0571,34.8
68.1072,27.4
68.1309,43.3
68.1429,51.7
68.1708,33.5
68.184,83.9
68.1932,34.4
68.2104,39.2
68.2766,41
68.2799,28.8
68.3266,47.3
68.3321,43.6
68.3427,35.4
68.3491,14.7
68.3519,35
68.3525,44
68.3568,45.6
68.3584,42.3
68.384,35.3
68.3964,40.9
68.4219,42.5
68.4244,43.8
68.4307,47
68.4474,36.5
68.448,40.1
68.473,54.3
68.4894,70.9
68.4971,35.7
68.5097,56.2
68.5144,39.6
68.5231,35.3
68.5405,49.1
68.554,36.8
68.5597,64.5
68.5681,33.8
68.5732,34.1
68.5738,39.8
68.5946,34.3
68.5976,50.5
68.5992,41
68.6258,58.8
68.6277,36.8
68.6404,35.6
68.6475,54.1
68.6517,33
68.6711,37.9
68.6935,40.5
68.6947,36
68.7196,35
68.7335,38.1
68.7487,65.9
68.7537,50.3
68.7854,28.2
68.7982,56.9
68.8022,36.4
68.8064,32.9
68.8337,56.6
68.8966,45.9
68.9029,18.1
68.9194,42.7
68.9319,54.8
68.9459,31.6
68.9549,34.5
68.9577,59.6
68.9829,36.3
68.9901,46.5
68.9952,70.6
68.9962,97.5
68.9982,39
69.0121,55.2
69.0208,34.3
69.035,120.7
69.0363,61.9
69.0404,55.6
69.0629,28.1
69.0712,31.9
69.1055,44.3
69.1406,39.5
69.1441,38.2
69.1629,54.3
69.1653,57.8
69.2,38.8
69.2072,33.1
69.2271,34.4
69.2329,24.4
69.2335,73.1
69.2408,42
69.2612,30.7
69.3082,40.4
69.3187,39.9
69.3624,32
69.3841,38.8
69.3944,31
69.3998,59.6
69.4009,44.2
69.4195,35.3
69.4271,30.2
69.4389,40.4
69.4433,56.8
69.4442,59.7
69.4547,34.9
69.4683,65.4
69.477,59.6
69.4978,42.7
69.5044,37
69.5309,39.6
69.5344,39.5
69.5467,45.3
69.5553,38.9
69.5829,35.8
69.5837,63.8
69.6049,34.7
69.6145,39.5
69.6305,40.3
69.6383,87.1
69.6435,32.8
69.6502,37.7
69.6539,54.5
69.6572,62.6
69.6577,56.5
69.6781,46.8
69.6973,52.6
69.7256,58.8
69.727,64.5
69.7281,40
69.7332,42.8
69.7397,68.1
69.7791,39.5
69.813,31.5
69.8197,21.9
69.8229,37.8
69.8646,55.8
69.8815,30.7
69.8947,34.9
69.9,35.6
69.9212,16.9
69.925,70.1
69.957,30
69.9591,42.1
69.9622,30.2
69.963,51.4
69.9684,83
70,62.1
70.0127,64.1
70.0155,47.5
70.0272,50.6
70.0303,35.4
70.0518,33.2
70.0805,36.5
70.0977,43.3
70.1078,34.2
70.126,41.6
70.1286,41.4
70.1432,15.8
70.1611,39
70.1654,35.4
70.1846,49.7
70.1951,34.9
70.2069,40.9
70.2155,37.3
70.2174,33.2
70.2421,53.2
70.2785,15.5
70.2908,67
70.298,27.6
70.3001,43.5
70.3007,33.9
70.3077,53
70.3183,32.8
70.3266,48.8
70.331,37.4
70.3341,35.4
70.3415,33.4
70.3458,43.6
70.3673,42.6
70.3805,30
70.3849,22.7
70.3961,77.2
70.398,31.9
70.4033,67.7
70.4131,54
70.4154,75.1
70.4178,41
70.4245,21.3
70.4263,50.7
70.4275,61.3
70.4358,32.5
70.4392,36.6
70.4467,49.3
70.458,38.4
70.4873,38.6
70.5007,36.4
70.5035,35.8
70.5054,36.1
70.5117,32.2
70.5127,29.8
70.5208,33.8
70.5255,38.6
70.537,31.2
70.5463,32.9
70.5867,29.9
70.5959,39.7
70.5974,38.1
70.5993,47.3
70.6223,55.1
70.6238,47.3
70.6267,27.1
70.64,51.7
70.6948,58.8
70.7078,31.2
70.7234,29.4
70.7277,36.7
70.771,36.5
70.7801,58.8
70.8193,48.9
70.8377,55.9
70.8408,36
70.8672,29.5
70.8678,31.3
70.8689,45
70.8742,42.9
70.899,48.6
70.9139,54.2
70.9184,45.6
70.9224,35.5
70.934,47.3
70.9393,65.1
70.9466,24.9
70.9586,34.9
70.9599,70.1
70.9685,17.2
70.9692,34.3
70.9717,33.6
70.9892,28.9
70.9923,34.1
70.995,73.9
71.0142,9199.5
71.0216,47.7
71.0506,344.8
71.0539,24.1
71.058,37.7
71.0686,58.8
71.0927,28.9
71.1248,58.3
71.1304,34.4
71.1357,36
71.1532,33.3
71.1701,42.5
71.185,30.1
71.1867,21.5
71.1942,28.7
71.2118,32.5
71.2146,45.6
71.2293,70.7
71.294,44.2
71.3234,45.5
71.3493,31.1
71.3845,22
71.385,33.7
71.413,44.9
71.4282,31.5
71.4333,21.6
71.4368,60.1
71.4444,35.3
71.4533,41.5
71.4609,25.9
71.5161,38.9
71.5202,52.8
71.5313,30.7
71.5375,30.3
71.5447,81.7
71.5604,60.8
71.5831,77.1
71.6162,74.8
71.6181,44.7
71.6214,37.2
71.6521,31.8
71.6574,57.9
71.6695,48.9
71.6835,35.8
71.7,18.3
71.7315,54.3
71.7738,60.4
71.7757,57.6
71.7772,62.4
71.786,49
71.8075,59.3
71.8094,32.8
71.8162,34
71.8394,22.4
71.8501,76.9
71.8543,18.7
71.856,34.1
71.8776,43.9
71.8846,32.7
71.8928,38.3
71.9192,59.4
71.9422,56.5
71.9458,42.2
71.9489,27.9
71.9539,66.2
71.9611,60.2
71.9725,46
71.9768,29.4
71.9851,25.4
71.9931,36.1
72.0008,43
72.0035,48.1
72.0095,1045.3
72.0229,33.4
72.0317,66.3
72.0376,37.8
72.0457,86.7
72.0685,41.2
72.0733,30.8
72.1002,102.2
72.1255,33
72.1268,21.4
72.1277,56.1
72.1313,42.7
72.1317,43.5
72.1405,67.5
72.1414,68.5
72.1472,48
72.1602,42
72.1701,33.9
72.1815,59.2
72.1837,153.2
72.1841,153.5
72.1851,60.1
72.186,92.5
72.1867,129.4
72.1877,291.3
72.1884,68.4
72.1889,128.6
72.1901,152.9
72.1915,391.6
72.1929,292
72.1935,347.8
72.1939,288.3
72.1941,287
72.1943,280.8
72.1957,628.6
72.1971,395.3
72.1981,459.3
72.1989,314.5
72.2001,323.6
72.201,348.4
72.2015,397.5
72.2024,539
72.2026,528.8
72.2037,314.2
72.2042,289.2
72.2056,268.7
72.2077,192.8
72.2085,95.1
72.2089,131.2
72.2102,167.9
72.2111,47.5
72.212,31.5
72.2137,121.7
72.2164,46.2
72.2356,60.5
72.2394,52.7
72.2463,44.4
72.2738,49.6
72.2945,56
72.3043,31.9
72.3342,38.9
72.3478,61.3
72.3538,65.7
72.3551,28.1
72.3697,38.5
72.3791,48.6
72.4237,50.1
72.4343,41
72.4527,53.4
72.4662,61
72.4684,29
72.4693,52.7
72.4745,31
72.4877,16.2
72.4988,41.2
72.5018,44.4
72.5039,44.5
72.5067,43.6
72.5106,25.1
72.5205,33.6
72.5256,38.5
72.5276,49.5
72.5287,43.9
72.5476,37
72.557,54.4
72.5715,36.6
72.5748,31.2
72.5758,94.4
72.6069,34.6
72.613,31.9
72.6219,33.1
72.6362,25.3
72.6451,46.2
72.6465,43
72.6793,19.9
72.6837,55.3
72.6925,46.3
72.694,19.5
72.7076,38.5
72.7079,54.7
72.7108,34.1
72.7187,28.7
72.7272,45.3
72.7281,38.1
72.7338,34
72.744,67.2
72.7602,39.4
72.7725,43.6
72.7753,37
72.8167,31.6
72.8293,56.9
72.844,46.9
72.8592,40.4
72.8703,32.3
72.8819,34.1
72.885,31.3
72.897,57.5
72.9046,29
72.943,28.8
72.9451,48.9
72.9501,36.7
72.9588,61.6
72.9632,40.1
72.9666,36.2
72.9791,51.8
72.9869,17.1
72.9935,1538.8
73.002,30.1
73.0184,32.3
73.0257,32.3
73.0289,254.7
73.0299,32942.1
73.0309,94
73.033,28.2
73.0413,75.3
73.0443,32.8
73.056,32.9
73.0769,46.5
73.0847,28.9
73.0954,65.9
73.101,43.4
73.1139,33.1
73.119,48.5
73.1303,34.6
73.1351,33.3
73.1473,32.3
73.1601,44.5
73.177,78.5
73.1949,35.2
73.196,37
73.1985,39.8
73.2059,88.3
73.2075,63.5
73.2179,43
73.23,38.8
73.2417,63.5
73.2471,67.4
73.2532,32.9
73.2625,17.6
73.2696,42.5
73.2728,48.6
73.2774,45.1
73.2879,60.5
73.2957,32.9
73.3176,39
73.3212,39.3
73.3272,46
73.3545,24.8
73.3551,46.4
73.3669,20.2
73.3736,40.2
73.3801,42
73.4162,45.5
73.4211,31.8
73.4252,53.1
73.427,31.1
73.4734,64.8
73.474,34.6
73.4779,36.6
73.5054,43.2
73.5149,56.2
73.5483,51.5
73.562,47.5
73.5624,48.6
73.5738,32.5
73.5933,36.7
73.6091,42.2
73.6194,34.7
73.6565,49
73.6628,26
73.6631,46
73.666,68
73.6758,39.2
73.6772,39.9
73.702,47.4
73.7115,39.9
73.7366,38.7
73.7413,31.8
73.7423,51.2
73.7554,52.5
73.7667,35
73.7679,47.6
73.7696,44.8
73.7714,42.7
73.7738,37.9
73.7811,28.4
73.8029,50.8
73.8205,43.3
73.8338,35.6
73.841,32
73.8778,32.5
73.9035,43.9
73.9082,35.4
73.919,37.8
73.9342,47.9
73.9596,44.4
73.9717,35.9
73.9966,30.1
74.0009,30.5
74.023,33.6
74.0251,1520
74.0333,48.1
74.0429,16.7
74.0523,30.1
74.0689,38.5
74.0698,31.9
74.0827,29.9
74.084,27.4
74.0904,33.7
74.1315,26.5
74.1402,23.6
74.1448,38.6
74.1499,49.3
74.1596,17.8
74.1797,27.3
74.1878,30.4
74.2323,24.3
74.2541,30.9
74.2627,54.9
74.2767,35.4
74.3153,60.1
74.3332,45.5
74.34,38.5
74.3417,47
74.3524,26.2
74.3562,69.6
74.3713,39.8
74.3801,61.1
74.3881,45.9
74.4101,47
74.4454,32.8
74.4588,42.7
74.4791,32.7
74.4798,36.7
74.5231,36.7
74.5331,79.6
74.5488,62.2
74.5542,44.8
74.6698,23.3
74.6768,48.2
74.702,35.8
74.721,33.8
74.7275,74.3
74.7335,33.9
74.7475,40.8
74.7581,45.4
74.7604,34.3
74.7644,43.9
74.7749,40.1
74.7821,69.1
74.7845,52.3
74.8332,60.7
74.8465,53.5
74.8664,57.3
74.8671,25.9
74.8758,44.6
74.8828,31.4
74.8838,69.7
74.8918,39.5
74.8973,16.9
74.9406,42.9
74.9584,34.8
74.9624,23.1
74.983,30.7
74.99,30.6
74.9953,33.3
75.0092,6112.5
75.0307,38.2
75.0348,30.6
75.0411,27.6
75.0455,1216.2
75.0618,35.1
75.0815,28.8
75.1195,42.6
75.1521,37.6
75.1672,28.3
75.1762,36.9
75.1908,36.3
75.1921,30.7
75.2028,57
75.226,24.6
75.2373,15.7
75.2447,48.6
75.2675,63.4
75.2795,38.2
75.2949,32.8
75.3374,33
75.3383,38.2
75.3449,38.8
75.3736,33.1
75.3843,50.2
75.4067,47.7
75.4242,26.5
75.4318,44.8
75.4506,71.3
75.462,37.3
75.4691,52.3
75.484,24.7
75.4864,33
75.4891,43.2
75.4893,41.8
75.4933,43.5
75.5019,46
75.5112,65.2
75.515,36.1
75.5157,15.9
75.5182,36.7
75.5263,43.2
75.5314,32.1
75.5695,65.4
75.5739,42.8
75.5788,34
75.5848,84.1
75.5865,30.9
75.6037,38.8
75.6077,34.6
75.6096,31.9
75.6261,34.5
75.6549,34.2
75.6603,43.6
75.693,26.2
75.7039,43.2
75.7066,19.5
75.7132,57.5
75.7254,59
75.8181,30.3
75.83,61.2
75.8375,40.1
75.8475,22.6
75.8761,71.2
75.877,37.6
75.879,26.3
75.8957,36.8
75.9013,40.4
75.9126,35.2
75.9177,29.5
75.9189,44.3
75.9236,43.2
75.9592,42
75.9735,56.5
76.0006,58
76.0132,32
76.0206,62.1
76.0214,38.4
76.0264,30.9
76.0279,40.1
76.032,49.9
76.0568,54.7
76.0731,38.8
76.0791,33.7
76.0799,35.2
76.0872,39.9
76.1136,32.3
76.1335,38.2
76.1735,69.5
76.1881,69.4
76.1931,65.7
76.2186,28.2
76.282,43.2
76.3063,60.8
76.3125,48.1
76.3129,42.3
76.3461,58.4
76.3569,39.9
76.3819,40.2
76.3837,25.6
76.402,20.3
76.4087,39
76.4361,35.2
76.452,53.3
76.4548,35.5
76.4562,59
76.5082,38.7
76.516,71.1
76.5222,53.2
76.5494,39.1
76.5573,66
76.6017,37.3
76.6065,36.8
76.6129,38.2
76.6148,27.4
76.6233,37.4
76.6273,47.6
76.6415,79.8
76.644,46.9
76.6535,33.3
76.6822,52.9
76.7269,30.3
76.7467,48.8
76.7546,26.9
76.7621,42.2
76.7852,44.1
76.7952,58.9
76.8291,37.4
76.8621,29.6
76.8721,46.8
76.8754,38.3
76.8825,34.6
76.8845,28.5
76.9106,15.3
76.9525,42.3
76.9655,33.1
76.9662,119.6
76.9672,441.8
76.9704,13787.6
76.9884,601.3
77.0038,29.3
77.0082,31.7
77.0281,47.9
77.0311,30.8
77.0378,30.2
77.0497,59.8
77.0681,74.8
77.0876,60.8
77.109,62.4
77.1141,36.6
77.1171,46.2
77.1528,38.8
77.1691,26.5
77.1699,25.1
77.1739,26.8
77.226,25.6
77.242,39.6
77.2464,41.7
77.2651,23.3
77.2662,47.4
77.2682,31.4
77.2828,42.1
77.2885,35.8
77.3347,29.1
77.337,37.8
77.3553,40
77.384,62.7
77.3894,39.7
77.4091,43.2
77.4204,45.2
77.4627,69.8
77.4937,23.1
77.5165,37.2
77.5198,38.6
77.5305,38.6
77.5361,63.4
77.5592,20.8
77.5663,23
77.5814,40.3
77.6299,29.5
77.6342,41.9
77.6432,40.4
77.6569,35.5
77.6596,37.1
77.6755,23
77.6862,32.7
77.7356,40.3
77.7376,32.9
77.7516,41.9
77.7645,52.3
77.778,34
77.8191,34.2
77.8442,68.6
77.8519,33.8
77.8609,33.5
77.8659,54.5
77.8682,68.1
77.8694,43.3
77.8728,32
77.9111,32.8
77.9622,19.9
77.9699,42.5
77.9748,36.1
77.9783,15.6
77.9826,34.6
77.9935,39.1
78.0072,38.5
78.0303,73.1
78.0398,37.2
78.0439,34
78.0677,35.2
78.0781,70.7
78.0844,46.4
78.0907,39.3
78.0914,56.7
78.1016,69.7
78.1188,32.1
78.1207,42
78.1244,43.3
78.131,20.1
78.1326,26.6
78.1477,85.3
78.1608,49.3
78.1664,31
78.1932,22.8
78.212,29.3
78.2146,42.2
78.2391,49.6
78.2441,36
78.2463,53.4
78.2832,33.7
78.2863,17.4
78.3107,36.5
78.3306,44.9
78.3491,40.8
78.3551,20.9
78.3677,36
78.3976,33.6
78.412,36.8
78.4231,66.1
78.4233,72.9
78.426,43.8
78.4445,33.2
78.4638,35.5
78.4649,26.2
78.4666,27.1
78.4708,45.8
78.4807,56.4
78.4916,26.7
78.5167,33.1
78.5296,42.1
78.562,33.5
78.5623,36.1
78.5626,36.3
78.5682,48.5
78.5753,39.2
78.5932,34.6
78.5986,43.2
78.6006,37.8
78.6208,34.5
78.6347,40.5
78.6407,45.1
78.6588,69.1
78.6653,35.4
78.6773,37.9
78.7001,37.3
78.7168,29.6
78.7213,45
78.7354,56.6
78.7427,18.4
78.8019,39.5
78.8061,25.6
78.8137,33.9
78.8231,37.9
78.8283,55.8
78.8343,30.5
78.838,44.7
78.843,47.2
78.865,41.6
78.8702,32.8
78.8882,43.8
78.897,17.7
78.9106,21.1
78.9199,28.6
78.9635,73.1
78.9673,37.4
78.9823,29.7
78.9922,18
78.9939,51.1
79.0002,19
79.0163,38.5
79.0216,41.2
79.0677,43.7
79.0743,59.1
79.0851,18.9
79.0955,25
79.1268,55.2
79.1303,54.6
79.1413,66.3
79.1424,43.2
79.1535,31.5
79.1761,37.7
79.177,31.4
79.1913,60
79.1959,46.2
79.2133,39.3
79.2321,31.2
79.2475,41.8
79.2548,47.9
79.2605,46.1
79.2681,29.9
79.3628,35.3
79.366,48.9
79.3781,35.5
79.3835,37.2
79.3845,28.8
79.427,39
79.4383,36
79.4392,31
79.4546,42.5
79.4852,62.8
79.487,41.6
79.5401,31.6
79.5547,41
79.5652,35
79.5696,36.2
79.5715,50
79.5823,34.9
79.5844,35.3
79.6014,32.8
79.6087,51.1
79.6509,39.1
79.6745,46.7
79.7059,39.5
79.7104,66.1
79.7118,19.4
79.7263,72.7
79.7743,34.5
79.8529,35.7
79.8574,43.2
79.8614,35.1
79.8714,69.6
79.9089,55.4
79.9298,37.6
79.9523,36.6
79.9533,43.1
79.9803,32.6
79.9839,46.3
79.9955,29.1
80.0114,62.1
80.032,91.5
80.0389,106.1
80.0467,44.8
80.0647,41.2
80.0721,34.4
80.1005,27.4
80.1432,47.2
80.1549,57.5
80.1619,41.3
80.1807,40.3
80.1877,42.6
80.1967,56.7
80.2224,49.6
80.2522,69.4
80.2586,65.3
80.2962,34.5
80.3013,54.3
80.333,38.3
80.3358,45.2
80.3515,30.5
80.367,32.4
80.3702,39.2
80.3779,63.1
80.4494,32.7
80.4628,30.7
80.5069,19.5
80.5227,48.1
80.5406,34.4
80.5579,69.5
80.5619,57.8
80.5935,42.1
80.6004,59
80.6081,16.8
80.6113,34.5
80.6293,50.3
80.6328,40.9
80.638,43.8
80.6486,70.7
80.6841,34.4
80.6965,25.1
80.7126,49.5
80.7561,49.7
80.7579,36.4
80.7641,34.1
80.7744,38.3
80.7845,61.7
80.7918,21.4
80.8136,26.5
80.8331,47.7
80.871,33.8
80.8737,75.9
80.8755,34.4
80.8789,33.4
80.8973,49.2
80.8987,27.3
80.9195,41.4
80.932,27.1
80.956,33.6
80.9571,58.8
80.9749,42.6
80.9935,44.4
81.005,37
81.035,119.2
81.0465,108.5
81.0587,62.1
81.0591,69.3
81.071,40
81.0896,30.2
81.0934,31
81.106,22.1
81.1072,81
81.109,146.6
81.1107,55.1
81.1117,43.8
81.1123,90.6
81.113,80.6
81.1147,66.5
81.1151,98.7
81.1175,27
81.1235,62.1
81.1431,50.1
81.1502,48.1
81.1821,34.1
81.1924,40.4
81.2053,48.6
81.21,29.5
81.2104,29.4
81.2623,57.7
81.2665,56.5
81.2754,32.2
81.3026,60.6
81.3198,30.4
81.3222,46.2
81.326,52.9
81.336,34.8
81.3451,22
81.3555,47.1
81.3721,27.5
81.3811,34.5
81.3852,42.5
81.3905,38.8
81.3948,33.9
81.431,43.7
81.4385,36.8
81.4401,39
81.4611,58.9
81.4894,37.6
81.4998,34.1
81.5193,33.4
81.5393,19.2
81.5535,48.2
81.5553,40.3
81.5687,42
81.5825,24.7
81.5866,38.1
81.5902,36.8
81.5963,33.1
81.6003,38.2
81.6123,33.1
81.6512,102.2
81.6677,40.5
81.6818,23.2
81.6904,60.7
81.6986,63.6
81.7037,47.8
81.7479,48
81.758,59.4
81.7887,37.6
81.8347,37.2
81.846,15.2
81.8479,37.2
81.8572,63.6
81.8673,62.1
81.9241,31.9
81.9859,46.2
82.0019,28.7
82.0165,61.8
82.0174,36.6
82.0302,12184.4
82.0426,27.2
82.0487,23
82.0777,20.7
82.082,41.6
82.1265,30.7
82.1432,34.7
82.1463,35.2
82.1569,40.4
82.1718,17.8
82.2015,36.8
82.2066,43
82.2207,34.3
82.2418,56.1
82.2825,27.5
82.3132,32.2
82.3274,42.7
82.34,45.2
82.3418,17.3
82.3446,36.6
82.3729,66.6
82.377,32.8
82.387,16.8
82.3931,34.5
82.3941,59.4
82.3986,44.3
82.4131,31
82.4223,39.6
82.4823,25.4
82.5282,47.2
82.5332,63.6
82.5561,37
82.5655,35.8
82.5828,37.9
82.591,43.1
82.6044,38
82.6204,41.8
82.6345,36.8
82.6515,48.7
82.6638,38.6
82.6956,45.9
82.703,41.2
82.7382,36.4
82.7582,26.3
82.7622,37.1
82.7634,34.8
82.767,50
82.7892,48
82.8002,49.7
82.8527,56.7
82.8633,37.3
82.9128,50
82.9191,33.8
82.9345,52.8
82.9554,61.2
82.9731,31.2
82.9863,37.6
82.9927,74.4
83.0143,225.2
83.0255,205.6
83.0335,35.6
83.0506,1467.7
83.0611,42.8
83.08,40.4
83.0899,37.1
83.0915,51.1
83.0992,27.5
83.1085,33.6
83.1307,48.9
83.1422,60.9
83.1651,56.1
83.167,39.2
83.1884,61.6
83.2024,46.4
83.2114,38.3
83.2169,48.9
83.2287,40
83.2363,42.7
83.281,84.7
83.3145,48.2
83.348,30.1
83.3771,49.3
83.4039,26.1
83.411,64.3
83.4119,59.4
83.4239,35.3
83.4403,28.7
83.4422,31.2
83.4524,37.9
83.4551,44.4
83.4901,60
83.4939,35.5
83.496,46.3
83.5144,34.2
83.5283,25.5
83.5314,35.3
83.5365,42
83.579,33.5
83.5981,37.6
83.6093,27.7
83.6207,33.5
83.637,33.1
83.6438,53.7
83.6511,40.8
83.7322,32.3
83.7422,29
83.7653,32.9
83.7894,33.8
83.8065,43.3
83.8396,67.3
83.8873,34.5
83.8914,29.8
83.8917,36.8
83.892,36.5
83.9045,52.9
83.9223,41.9
83.9429,52.2
83.9704,30.5
84.0001,36.5
84.0095,93.7
84.0459,508.8
84.0797,68.4
84.1111,72.2
84.1559,50.3
84.1689,36.3
84.1763,47.3
84.1786,47
84.1828,39
84.2077,30.8
84.2547,41.2
84.2814,38.2
84.2921,39.9
84.2967,53.9
84.3342,55.9
84.34,34
84.3726,34
84.3836,36.1
84.3938,38.1
84.4161,53
84.438,42
84.4868,33.5
84.505,38.2
84.513,70.4
84.5326,40
84.5514,47.9
84.5687,41.8
84.5716,31.9
84.5842,46.2
84.597,51.2
84.5995,57.6
84.6007,36.6
84.634,46.8
84.6381,30.6
84.6405,17.1
84.7033,52.4
84.704,35.5
84.7135,34.3
84.716,50.9
84.7325,39.2
84.7543,96.3
84.7625,42.4
84.766,49.4
84.7857,91.6
84.7979,34.6
84.836,43.5
84.8449,56.7
84.8501,96.5
84.8551,40.7
84.8567,37.4
84.8697,36.4
84.8946,42.8
84.8974,47.4
84.9095,56.6
84.922,37.4
84.9253,78.8
84.9756,45.7
84.9896,39.5
84.9911,7560
85.0027,51.5
85.0049,44.1
85.0271,25.1
85.0284,41.2
85.0299,13891.2
85.0412,41.8
85.0917,55.5
85.1157,46
85.1212,31.5
85.1393,50.1
85.1417,31
85.166,36
85.1669,53.1
85.1691,38
85.1962,37.1
85.2656,39.7
85.2697,33.3
85.2844,37.8
85.3314,31.9
85.3638,52.5
85.3656,84.8
85.3795,76.5
85.408,41.8
85.4101,67.8
85.4129,17
85.4198,32.5
85.428,72.8
85.4433,33.1
85.4699,42.4
85.5544,33.8
85.5698,17
85.572,40.6
85.5752,51.7
85.5876,32.2
85.5888,35.4
85.6141,31.5
85.6407,41.1
85.6682,16.3
85.6704,39.4
85.6903,55.1
85.7041,46.4
85.7045,68.1
85.7048,53.3
85.7074,45.4
85.7316,35.2
85.7339,65.9
85.76,62.3
85.7856,36.2
85.7979,35.1
85.805,32.3
85.8246,43.5
85.9019,47.3
85.9545,50.7
85.9564,50.6
85.9688,24.4
85.9864,83.9
85.9911,33.7
86.024,36.9
86.0252,7168.2
86.0316,31
86.0331,31.2
86.086,19.2
86.121,53.3
86.124,17
86.1312,34.4
86.1635,35.5
86.1667,66.8
86.1739,50.9
86.2002,44.2
86.2022,42.7
86.2028,90.5
86.2146,28
86.2783,32.7
86.3301,135.6
86.3619,50.1
86.4011,31.4
86.418,35.5
86.4678,30.6
86.5057,25.3
86.5165,40.7
86.5456,42.2
86.5746,31.1
86.6255,17.7
86.6867,36.3
86.6956,69.4
86.7041,63.8
86.723,66.9
86.7529,29.4
86.7614,43.2
86.7689,45.7
86.8163,37.6
86.8307,61.9
86.851,41.2
86.8535,64.2
86.8694,36.8
86.8847,33.2
86.9141,38.3
86.9463,30.2
86.9676,64.4
86.9716,36.4
86.9865,49.3
87.0006,29.2
87.0023,36.9
87.0092,11696.6
87.013,34.9
87.0351,46.1
87.0411,50.1
87.0456,20621.3
87.0493,44.4
87.0683,16.1
87.0733,41
87.0819,35.7
87.088,30.9
87.0971,36.8
87.103,37.4
87.1076,40.7
87.1209,42.1
87.1347,44.7
87.1511,52.7
87.1924,39.1
87.216,35.9
87.2715,64.9
87.2904,47.3
87.3004,36.1
87.3441,22.2
87.3623,43.9
87.3978,45.2
87.4307,49.2
87.4318,39.4
87.4345,40
87.4894,33.7
87.4908,55.7
87.525,28.4
87.5364,36
87.5432,27.1
87.5444,15.7
87.5617,39.2
87.5804,30.4
87.6013,38.1
87.609,35.9
87.6106,32.7
87.6144,55.6
87.6153,59.1
87.6263,35
87.6358,59.4
87.6489,42.1
87.6502,35.3
87.6654,42.6
87.6881,42.8
87.6982,43.2
87.7763,42.6
87.8003,41.3
87.8052,39.6
87.8211,41.4
87.8275,34.8
87.8293,35.3
87.8467,41.9
87.8605,47.7
87.879,39.4
87.9092,27.5
87.9347,35.2
87.9437,17.9
87.9479,57.8
87.9681,48.3
87.972,29.1
88.0045,239.6
88.0078,32.9
88.0127,37.1
88.0408,4899.9
88.049,49.6
88.0507,51.9
88.0619,34.5
88.0733,43.2
88.0782,47.4
88.0843,49.1
88.0883,32.3
88.1098,28.3
88.1124,50.3
88.1413,40.3
88.1713,36.5
88.194,38.7
88.199,40.2
88.2007,30.6
88.3393,29.9
88.3444,59
88.3687,52.6
88.3809,26.1
88.3932,47.1
88.4002,56
88.4034,73.3
88.4085,37.3
88.4167,31.7
88.4494,37.6
88.4628,46.8
88.5061,46.4
88.5125,41.3
88.5407,64.6
88.5586,71.5
88.5723,121.5
88.6029,38.8
88.6192,62.2
88.6207,43.3
88.6519,49.6
88.6777,47.2
88.6849,42
88.7087,34.4
88.7164,16.4
88.7374,43.9
88.7627,40.3
88.7701,31.2
88.7713,62.5
88.7745,16.2
88.7939,26.8
88.8405,44
88.8695,34
88.8705,46.4
88.911,46.2
88.9499,59.1
88.9639,18.9
88.9653,50.6
88.9662,31.8
88.9838,62.5
88.9884,106.9
89.0073,39.2
89.0091,56.8
89.0126,152.3
89.0222,151.7
89.0235,313.1
89.0248,48335.8
89.0262,264.1
89.0275,124.7
89.0327,50.7
89.037,85.4
89.0492,30.5
89.0612,531.9
89.0789,50.1
89.0823,49.1
89.0877,34
89.0987,42.4
89.1126,31.4
89.1343,34.9
89.1512,43
89.1927,45.5
89.2451,31.5
89.2643,47.9
89.2821,50.9
89.2854,44.1
89.3437,69
89.3469,27.8
89.3674,44.2
89.3764,37.4
89.3782,40.9
89.3864,46.7
89.3978,54.9
89.4295,35
89.4725,39.8
89.5104,67.7
89.5754,57
89.5787,38
89.58,82.7
89.5813,66.9
89.6031,35.3
89.6068,44.9
89.6212,59.5
89.6475,37.9
89.6917,36
89.6989,51.6
89.7116,57.4
89.7305,62.6
89.7379,46.2
89.7414,28.3
89.7663,60.7
89.7666,109.8
89.7777,60.1
89.8002,56.1
89.807,45.7
89.8597,34.6
89.8982,61.6
89.9014,35.7
89.9042,34.4
89.9457,37.9
89.9524,44.9
89.9822,53.6
89.986,41
90.0201,201
90.0282,581.2
90.0329,72.7
90.0592,37.1
90.1091,40.7
90.1369,17.4
90.1619,53.5
90.2065,28.8
90.23,44.2
90.2425,36.3
90.2459,41.2
90.2488,18.6
90.2583,34.8
90.2759,37.8
90.3044,32.7
90.3122,57.6
90.3376,71.2
90.3582,37
90.3654,37.8
90.3742,15.7
90.3951,51.5
90.3993,32.2
90.43,45.7
90.4305,65.2
90.4308,61.5
90.4773,28.6
90.4788,48.4
90.529,62.6
90.5479,34.2
90.5516,52.2
90.5702,57.9
90.5804,39
90.592,57.5
90.5953,23.1
90.6574,42.2
90.6923,46.1
90.7157,45.9
90.743,45.1
90.7553,38.1
90.7709,70
90.8084,36.2
90.87,36.1
90.926,37.7
90.9288,31.4
90.9442,34.7
90.9495,44.4
90.9536,93.2
90.9571,49.4
90.9985,177.1
91.0028,20.8
91.0031,23.5
91.0041,6751.9
91.0225,126.2
91.0252,40.1
91.029,29.6
91.0361,34.4
91.0405,4080.2
91.0792,45.6
91.1072,50.5
91.1357,78.4
91.1427,46.1
91.1551,52.8
91.1629,64.9
91.1931,54.8
91.1948,73.3
91.2035,51.3
91.2426,74.9
91.2494,52.2
91.2527,29.7
91.2837,81.9
91.3106,34.3
91.3236,52.2
91.3273,37.8
91.3499,52.2
91.3533,54.7
91.3679,36.8
91.3874,27.9
91.4006,75.2
91.4301,24.4
91.4363,37.3
91.4382,40.8
91.4488,38.2
91.4584,59.2
91.4875,35.5
91.494,60.1
91.4949,41.5
91.5124,54.8
91.5131,51.4
91.5195,33.2
91.5272,45.2
91.5609,53.9
91.5965,63.4
91.6024,37.7
91.6387,37.6
91.6402,31.6
91.67,56.9
91.6782,45.5
91.7246,37.3
91.7297,32.1
91.7403,42.1
91.7513,34
91.783,30.3
91.7888,33.8
91.7913,34.8
91.7983,38.1
91.8065,57.6
91.8115,32.2
91.8133,45.4
91.8248,57.7
91.8377,41.1
91.8395,61.1
91.8495,37.5
91.8564,44.5
91.8634,36.8
91.8958,65.7
91.9083,17
91.9126,33.7
91.915,37.5
91.9284,59.3
91.9537,71.3
91.9993,52.5
92.0017,29.6
92.003,41.4
92.0476,34.1
92.0509,105.2
92.0595,37.3
92.0686,30.5
92.0698,88.5
92.0782,42.2
92.0838,54.4
92.1147,37.2
92.117,50.1
92.1452,54.4
92.1509,22.2
92.1533,34.1
92.1563,34.5
92.1782,49.4
92.2096,19
92.2354,67.2
92.2556,43.3
92.2596,28.5
92.2927,35.2
92.3257,44
92.3705,33.3
92.3731,53
92.4012,54.8
92.4069,26.1
92.4113,29
92.4527,59.9
92.4643,45.4
92.4736,76.9
92.5203,61.1
92.5306,29.7
92.5382,67.3
92.5589,56.5
92.5926,50.1
92.6067,47.6
92.6172,31.8
92.6712,61.7
92.6912,18.1
92.6962,52.7
92.6986,17.9
92.722,19.8
92.7284,30.5
92.7305,64.5
92.7316,23
92.7667,16.1
92.7726,44.6
92.8037,65.1
92.8055,47.7
92.812,46.3
92.8468,44.6
92.8633,39.6
92.8908,54.5
92.8987,80.9
92.9273,38.7
92.9284,186
92.9655,78.1
92.9748,18.5
92.9813,44.7
93.0023,44.2
93.0026,43
93.035,120.6
93.057,26.1
93.1074,40.1
93.1196,38.7
93.1509,29.7
93.1529,34.4
93.1874,34.6
93.2164,44.3
93.2206,45.2
93.2486,35.9
93.2577,46.1
93.2701,17.7
93.2788,35.7
93.2894,29.3
93.3005,33
93.3074,36.6
93.3104,93.4
93.3289,60.9
93.3372,78.4
93.343,52.2
93.3515,30.8
93.3719,35.6
93.3792,35.6
93.4124,37.3
93.414,35.6
93.4383,23.8
93.4416,35.4
93.4668,61
93.501,29.1
93.5132,62
93.5159,67.7
93.5363,27.6
93.5424,73.9
93.547,48.5
93.6002,18.6
93.6152,47.7
93.6234,25
93.6273,36
93.6346,32.2
93.6419,34
93.6551,31.5
93.6614,43.8
93.6943,69.7
93.7,47.6
93.7452,28.6
93.7607,33.3
93.7793,30.6
93.801,51.8
93.8087,57.1
93.831,45.8
93.8363,59.9
93.8373,72.8
93.8543,58.1
93.8591,84.3
93.8985,34.5
93.926,31.1
93.9492,56.4
93.9799,41.4
94.0125,18.2
94.0255,18.4
94.0303,271.7
94.0351,37.1
94.0475,45.2
94.1122,28
94.1326,37.7
94.181,29.4
94.1994,17.1
94.2049,38.7
94.2468,16.3
94.2507,17.2
94.2519,34.7
94.2609,38.8
94.2691,38.6
94.2706,40.1
94.297,38.6
94.3136,39.8
94.3163,20.4
94.3191,48.4
94.3358,33.9
94.338,46.9
94.3838,33.2
94.4001,36.8
94.4116,38.2
94.416,39.3
94.4445,24.5
94.4769,74.2
94.4848,48.3
94.4909,90.6
94.4928,52.8
94.5205,39.6
94.5221,33.8
94.5252,34.6
94.5707,63.1
94.6188,30.8
94.6658,60.4
94.6675,62.6
94.7379,40.4
94.7594,55.9
94.771,30.3
94.8098,35.3
94.8361,31.7
94.8797,64
94.9139,42.6
94.9254,135.7
94.9407,943
94.9591,44.5
94.9676,1234
94.9749,37.9
94.9765,152
94.9781,1267.7
94.9796,8588.3
94.981,360018.8
94.9825,7793.7
94.9839,713
94.9853,112
94.9934,819.3
94.9944,979.9
95.0187,37.3
95.0213,653.8
95.0255,299.4
95.0274,36.6
95.0329,43.5
95.0506,1314.8
95.0618,87
95.1566,21.1
95.2087,50.5
95.2332,36.1
95.2426,38.9
95.2681,44
95.2701,31.6
95.2996,39.1
95.3203,62.4
95.3281,30.4
95.3751,18.9
95.3785,22.1
95.3866,37.8
95.3949,46.7
95.4137,34.5
95.4508,67.2
95.4563,25.6
95.4605,33.7
95.4725,36.2
95.4952,51.8
95.5305,73.3
95.5318,45.6
95.5343,32.9
95.5396,41.2
95.5601,29.8
95.6009,56
95.6237,35.6
95.6248,49.1
95.6931,51.8
95.6997,47.3
95.7091,54.4
95.7115,40.5
95.7249,42.8
95.7467,70.2
95.7653,45.2
95.7723,35.5
95.7834,38.7
95.8048,31.3
95.8257,31.5
95.8363,71.3
95.9035,45.5
95.9464,48.5
95.9674,37.4
95.9704,33.7
95.9806,14915.3
95.9914,30.1
96.0095,97.4
96.0174,49.7
96.021,38.8
96.0219,34.3
96.0238,34.8
96.0459,1565.9
96.0474,49.6
96.1241,37.7
96.1283,61.4
96.1658,50.9
96.1905,97.2
96.2455,45.1
96.2473,16.1
96.2657,43.6
96.3829,41.2
96.3855,32.4
96.3919,43.3
96.421,48.3
96.4775,44.1
96.4954,42
96.5123,33.8
96.5194,61
96.5225,33.8
96.5441,20.9
96.5924,31.2
96.6195,51.7
96.6595,22.8
96.6764,37.7
96.699,31.7
96.7452,49.4
96.788,37.4
96.7982,39.1
96.8061,33.5
96.8276,41.7
96.831,29.5
96.8642,37.5
96.8802,47.2
96.8898,43.2
96.9289,34.4
96.9583,50.5
96.9605,478.7
96.97,696.2
96.9709,36.8
96.9778,9809.8
96.9852,1548.4
96.9903,34.6
97.0275,39.4
97.0299,3053.2
97.0411,1905.1
97.0663,1085.4
97.1594,34.9
97.1734,43.8
97.1814,42.6
97.1836,49.2
97.2166,36.6
97.2704,32.9
97.2926,41.2
97.2938,39.6
97.3186,51
97.3569,34.9
97.3627,39.6
97.3754,39.9
97.3802,41.9
97.4168,33.2
97.423,55
97.451,35.7
97.4541,15.7
97.4623,21.4
97.5068,38.2
97.5746,32.5
97.602,57.8
97.6209,19.7
97.6385,36.6
97.6535,48.6
97.6783,44
97.6819,51.8
97.6952,75.2
97.7122,40
97.724,59
97.7388,36.6
97.7665,56.4
97.7731,46.9
97.7799,40.3
97.7818,19.5
97.8238,50.8
97.8429,77.3
97.8781,29.1
97.8827,45.2
97.8868,66.2
97.9232,47.1
97.9292,49.3
97.9321,19.6
97.9341,56.2
97.9894,42.4
98.0251,5562.3
98.0281,37
98.0347,28.2
98.0443,42.5
98.0615,1176.3
98.0626,30.4
98.0688,71.5
98.1017,47.6
98.1922,38.1
98.2131,16.2
98.2534,29.5
98.3272,35.9
98.3286,62.3
98.3392,31.3
98.3528,45.3
98.3696,38.8
98.3812,65.9
98.3932,34.2
98.4081,51.9
98.5045,28.5
98.5108,65.3
98.5219,50.5
98.5456,34.2
98.5533,45.8
98.5662,18.7
98.5781,42.2
98.5819,33.5
98.6026,40.9
98.6055,34.3
98.6282,61.6
98.6308,34.1
98.635,18.1
98.7272,31.8
98.7503,33.5
98.7539,28.2
98.7592,38.9
98.8282,35
98.8323,46.2
98.8573,36.2
98.859,16.6
98.8869,36.3
98.8967,70.1
98.9026,43.8
98.9241,67.2
98.9636,92.4
98.9821,36.5
99.0091,798.5
99.0167,81.3
99.0203,130.5
99.0321,25.5
99.033,36.1
99.0415,51.6
99.0431,27410.6
99.0455,10802.7
99.0512,15.7
99.0568,344
99.059,32.7
99.0754,34.6
99.0818,48.3
99.1135,36.2
99.134,27.7
99.1497,38.8
99.1773,29.3
99.181,30.2
99.2144,43.1
99.2199,37.8
99.2448,59.5
99.259,39.8
99.2642,33.9
99.2996,50.2
99.3048,61.5
99.311,69.4
99.3142,54.7
99.33,39.9
99.334,48.5
99.4066,35.6
99.4341,26.1
99.4478,27.7
99.4749,49.1
99.4771,35.8
99.5383,35.1
99.5542,34.6
99.5685,32
99.5709,40
99.5989,37.9
99.6042,46.5
99.6067,40.5
99.6183,38.2
99.6535,48.7
99.6675,59.9
99.6751,83.5
99.7046,28.8
99.7266,36.4
99.7666,33.8
99.7755,31.8
99.7953,81.8
99.8013,47.1
99.8436,25.7
99.8639,42.4
99.8723,45.3
99.8835,90.4
99.9072,60.1
99.9138,51.9
99.9262,61.2
99.9329,31.4
99.9708,15.9
99.9765,64.1
99.9941,26.5
99.9954,33.4
99.9971,37.8
100.0044,163.5
100.0169,41
100.0288,18.5
100.0408,6000.9
100.0489,76.2
100.0639,28.1
100.0944,24.8
100.123,41.2
100.1496,45.4
100.1805,53.4
100.2306,45.8
100.3134,38.7
100.344,61.6
100.3587,35.4
100.3739,28.8
100.4001,70.3
100.4376,44.1
100.4509,40.5
100.4575,62.3
100.474,31.4
100.5054,48.7
100.5205,36.6
100.5353,45.8
100.5942,33
100.6355,32.7
100.6367,32.8
100.6413,62.1
100.724,53.4
100.7618,19
100.7813,39
100.8042,35.8
100.8082,32.2
100.8343,43
100.9268,40.3
100.934,129.6
100.9651,134.5
100.9844,48
100.986,21570.1
100.9894,65
101.0248,13873.1
101.0265,19.1
101.036,89.9
101.0395,65.1
101.0612,20562.1
101.0724,37.5
101.0743,33.2
101.1026,36.9
101.1399,33.6
101.1549,89
101.1928,44.5
101.234,48.6
101.2356,54.3
101.2434,37.2
101.2533,49.6
101.2902,76.6
101.2935,37.4
101.3198,48
101.3363,27.9
101.3621,47.6
101.4293,45.6
101.4782,31.7
101.4852,58.5
101.4927,48.9
101.546,35.2
101.5901,36.3
101.6115,31.2
101.6274,34.4
101.7168,34
101.7327,26
101.7421,36
101.756,34.7
101.8407,38.9
101.8718,31.4
101.8932,59.7
101.9009,38.8
101.926,27.8
101.9862,40
101.9935,37
102.0013,47.4
102.0201,1643.5
102.0231,27.7
102.0281,119.9
102.0381,34.7
102.0441,25.9
102.0564,5653.6
102.059,36
102.0615,55.1
102.0636,34.3
102.0646,151.5
102.0863,82.9
102.1222,30.5
102.139,46.5
102.1557,29.6
102.1636,41.5
102.1672,22.2
102.1742,35.4
102.2148,72.8
102.2246,41.9
102.2307,37.7
102.2643,98.6
102.2685,30.2
102.27,32
102.2804,43.6
102.3069,29.1
102.3275,26.2
102.3286,32.6
102.3804,51.1
102.3963,49.9
102.4009,46.7
102.43,45.5
102.4385,52.6
102.4455,43.7
102.462,16.1
102.4825,58
102.5159,62.6
102.6045,36.6
102.6254,40.3
102.6307,24.3
102.6337,33.8
102.6457,34.8
102.6807,44.3
102.7006,50.3
102.7284,40.7
102.7382,39.9
102.7515,40.4
102.7851,32.6
102.7932,56.9
102.8212,40.6
102.8704,36.5
102.8751,30.2
102.8783,51
102.8822,28.5
102.9281,61.5
102.9356,41.1
102.9461,37.8
102.9487,40.8
102.9572,2997.8
102.9646,61.6
102.9695,55.3
102.9879,19.1
102.9949,1522.3
102.9987,31.8
103.0041,3287
103.0154,183.1
103.0253,1792.6
103.0354,300.9
103.0372,1812
103.0388,10506.6
103.0404,453095.4
103.0421,9361
103.0437,1303.5
103.0456,283.2
103.0556,1493.1
103.0576,1181.4
103.0614,28.4
103.0745,60.9
103.0768,4563.1
103.086,1142.9
103.0874,47.1
103.0973,24.6
103.1432,30.6
103.1446,25.1
103.1775,51
103.1851,43.5
103.2394,37.7
103.2426,44.7
103.2644,30.8
103.2853,45.1
103.2961,38.9
103.3245,47.3
103.3272,42.2
103.3293,35.2
103.3768,32.6
103.4422,70.6
103.4514,35.4
103.4972,58.8
103.5088,38
103.5277,37.8
103.5321,57
103.539,33.8
103.5755,36.4
103.5808,42.8
103.6099,37.7
103.6152,25.3
103.6189,34.8
103.6588,36.7
103.6672,42.7
103.6718,49.6
103.6805,19
103.7477,31.4
103.7482,36.8
103.7484,37.7
103.7566,17.3
103.7696,30.1
103.8775,35.8
103.9097,63.7
103.9102,61.2
103.946,35.8
103.956,20.8
103.9961,35.6
104.0356,767.5
104.0421,36.8
104.0438,16202.6
104.0785,37.2
104.0908,45
104.1089,46
104.1243,31.6
104.1301,16.4
104.1688,40.5
104.171,40.6
104.1739,49.7
104.1864,50.9
104.2084,50.2
104.2363,28.3
104.326,18.2
104.3349,37
104.3453,44.6
104.3541,32.1
104.3657,39.4
104.3669,24.5
104.381,33.6
104.43,35.2
104.449,46.7
104.4495,37.8
104.5576,30
104.5653,18.6
104.589,87.2
104.6033,73.7
104.629,66.7
104.6669,43.1
104.6709,61.1
104.6762,21.2
104.7071,33.8
104.7131,33.7
104.7593,46.3
104.7652,38.9
104.7671,31.7
104.8129,69.9
104.8243,39.5
104.8318,40.9
104.8384,57.5
104.8518,48.1
104.8705,30.6
104.8745,38
104.8897,64.3
104.9449,47.8
104.9502,43.6
104.9542,839.8
104.982,34.6
104.994,54.5
105.0177,109.9
105.0197,3341.6
105.0426,29.5
105.0446,1486
105.0471,36.5
105.0541,38.3
105.0561,184.1
105.0715,26.2
105.0744,39.3
105.0913,38.1
105.1704,92.7
105.1851,35
105.1906,36.4
105.192,41.9
105.2502,18.2
105.2618,50.8
105.268,54.6
105.2771,45.8
105.2924,31.2
105.2941,55
105.3101,27
105.3403,53.4
105.3445,32
105.3861,37.7
105.3935,61.6
105.4182,46.1
105.426,41.5
105.4349,55.3
105.4591,27.9
105.483,32.6
105.5207,42.7
105.5952,33.3
105.6192,32.8
105.6224,27.3
105.69,35.8
105.6953,37.1
105.7462,35.6
105.8188,26.8
105.832,45.8
105.8606,36.8
105.868,46
105.8836,35.8
105.914,33.8
105.9158,37
105.9171,18.6
105.9343,60.9
105.9527,37.6
105.9564,63.6
105.9721,35.1
105.9898,44.4
105.9948,39.8
105.9986,35
106.0522,30.7
106.0737,22.9
106.0787,33.9
106.0896,31.2
106.1398,32.3
106.1832,33.2
106.2343,48.3
106.2475,21.2
106.279,49.3
106.2964,70.5
106.3161,35
106.3468,42.7
106.3507,27.3
106.3975,35.2
106.4091,41.6
106.4136,37.1
106.4275,43.3
106.5096,50.7
106.5255,28.1
106.5308,35.9
106.5365,42.1
106.6203,33.9
106.6555,18.6
106.6572,45.1
106.6703,30
106.6858,16.7
106.7213,66.5
106.7394,41.6
106.7784,40.9
106.7952,31.3
106.8055,30.2
106.8754,54.3
106.9642,70.8
106.9934,94.6
106.9956,43.4
107.0093,37.8
107.017,36.5
107.0378,57.7
107.0507,28.7
107.1371,34
107.1639,17.6
107.2055,61.2
107.2073,48.2
107.2131,15.7
107.227,68.3
107.2444,47.3
107.2954,42
107.3188,38
107.3468,17.9
107.3765,34.7
107.4075,43.9
107.4166,38.9
107.4742,35.5
107.4915,42.9
107.5345,32.4
107.5799,72.4
107.5824,61.4
107.6742,22
107.6761,33.3
107.7857,25.2
107.7986,27.9
107.8015,33.4
107.8052,22.9
107.8388,35.7
107.8974,43.9
107.9143,36.8
107.9916,39.5
108.0154,17
108.0458,1120.9
108.0741,16.6
108.0818,43.4
108.1109,57.4
108.1205,16.4
108.1476,78
108.1548,55.6
108.1554,15.2
108.1886,44.2
108.219,53.9
108.2798,37.6
108.3054,30.8
108.3183,52.4
108.3242,71.9
108.3444,38
108.3699,59.6
108.3715,36.4
108.4,28.1
108.4971,48.5
108.5108,70.9
108.5347,39.8
108.546,39.1
108.607,33.6
108.6251,36.6
108.6354,30.7
108.7193,41.7
108.7573,54.3
108.7798,23.8
108.8568,54.2
108.8614,31.5
108.905,50
108.9064,49.2
108.9096,47.6
108.927,38.1
109.0074,67.8
109.0298,47.2
109.0329,31.9
109.0344,34.2
109.0393,36.3
109.0411,416.8
109.0662,59
109.1105,39
109.1262,34.6
109.1364,44.4
109.1409,28.1
109.168,34.8
109.1985,61.7
109.2036,38.3
109.2302,51
109.2437,36.3
109.258,46
109.3006,36.5
109.332,79.1
109.3779,22.1
109.383,39.8
109.4043,18.8
109.4071,62.9
109.4348,17.3
109.4918,66.6
109.5252,62
109.5635,53.5
109.5712,26.4
109.581,79
109.5848,58
109.5986,31.9
109.6912,41.1
109.7224,45.4
109.7423,51.8
109.9252,25.6
109.9363,69.1
109.9381,26
109.9695,37.8
109.9947,50.6
110.0169,66.9
110.0181,42.2
110.0251,723.2
110.0354,52.9
110.0418,16.7
110.0488,30.6
110.0501,33.5
110.0615,2073.3
110.0721,30.5
110.0748,35.2
110.1082,53.2
110.1107,42.3
110.1165,74.6
110.1585,26.6
110.1636,34.9
110.1784,50.8
110.2645,37.5
110.2759,32.9
110.31,40.3
110.3468,36.3
110.3541,70.9
110.3783,34.4
110.3978,36.7
110.3995,49.2
110.4087,34.8
110.4253,118.7
110.4559,39.6
110.4615,33.5
110.4693,17.8
110.4962,47.5
110.5205,47.8
110.5654,62.7
110.6012,41.3
110.6311,49.4
110.6439,35.8
110.6598,26.3
110.7077,37.6
110.7356,32.2
110.7928,53
110.8005,36.3
110.8145,40.3
110.8308,68.2
110.8459,44.3
110.8481,34.6
110.8495,30.8
110.8535,43
110.8549,38.2
110.8955,43.7
110.9308,33.5
110.9336,31.7
110.9415,43.5
110.9608,49.7
110.984,50.3
111.0043,52.6
111.0204,95.5
111.0455,6317.7
111.0568,181.5
111.0797,76.5
111.1182,37.4
111.1503,68
111.2121,33.1
111.2488,40.1
111.2967,43.5
111.3019,36.1
111.3075,40.1
111.3147,17.4
111.4006,49.3
111.4536,50.2
111.456,45.4
111.4714,68.8
111.4995,43.5
111.5269,28.5
111.5598,46
111.5745,58
111.5989,51.4
111.6095,40.1
111.6315,45.6
111.6435,33.2
111.6736,36.8
111.6834,25.5
111.7242,42.5
111.7334,44.1
111.742,35.2
111.7438,29.8
111.7695,32
111.7954,25.5
111.826,34.2
111.8363,18.3
111.8532,46.3
111.8788,25.4
111.9003,46.5
111.9414,34.8
111.9484,37
111.9643,43
112.0407,3198.9
112.052,506.5
112.0771,2998.4
112.0846,32.3
112.1017,38.5
112.127,53.3
112.1429,38.1
112.19,82.8
112.209,31.8
112.2455,60.4
112.2506,32.3
112.26,40.7
112.293,34.1
112.3163,42.7
112.3183,42.7
112.3493,35.5
112.4141,62.4
112.4246,37.4
112.4306,32.2
112.4453,39.8
112.4562,70.8
112.4711,73.4
112.4847,65.7
112.4899,20.2
112.4916,70.9
112.5067,34.1
112.5079,37.6
112.5122,41.3
112.5181,48
112.5426,35.5
112.5673,44
112.5854,53.9
112.6149,43.6
112.6296,31.8
112.6425,30
112.6736,35.8
112.6959,35.6
112.7173,36.3
112.7371,53.2
112.7475,34.6
112.7622,74.8
112.7948,25.7
112.7964,62.2
112.7997,48.8
112.8192,44.5
112.8264,49.8
112.8348,44
112.8441,38
112.8475,46.4
112.8673,42.1
112.9154,31.2
112.918,46.6
112.9337,121.6
112.935,67.7
112.9385,55.3
112.9455,33.3
112.9572,45.4
112.9685,296.4
112.978,44.2
112.9802,92.9
112.9821,345.6
112.9841,567.6
112.986,47286.7
112.9878,558.4
112.9898,299.5
112.9919,130.2
113.0034,232.8
113.0137,31.8
113.0162,31
113.0247,5298.9
113.036,341.5
113.0382,29.4
113.0485,56.8
113.0611,6685.6
113.0724,2725.3
113.094,45.4
113.0993,45.8
113.1254,37.3
113.1286,36.4
113.1844,57.3
113.1867,65.6
113.1889,27.6
113.2133,41.6
113.3632,56.1
113.3836,47.9
113.4184,39.6
113.4445,48.8
113.4479,41.3
113.4541,34.6
113.4795,36.9
113.503,40.5
113.5041,35.8
113.5573,86.5
113.5606,44
113.5718,20.2
113.59,44.1
113.6184,33.9
113.6339,96.7
113.6425,58.5
113.6479,22.6
113.6818,67.5
113.6886,38.6
113.7107,57.4
113.7946,50.4
113.8165,60.4
113.8261,41.1
113.8556,32.5
113.8622,27.7
113.9678,84.5
113.9772,30.4
113.9812,1135.4
113.9893,823.4
113.9924,18.7
114.007,32.9
114.02,1166.9
114.0236,67.2
114.0302,100.1
114.0477,40.3
114.0538,41.4
114.0564,6098.8
114.0871,35
114.0886,37.3
114.1537,53.6
114.2529,65.1
114.3041,47.8
114.3048,66.1
114.3596,32.1
114.3848,46.1
114.4022,18.8
114.4141,40.1
114.4227,41.7
114.4564,32.3
114.4744,45.2
114.5189,40
114.5212,34.6
114.5501,85.9
114.6111,41.9
114.6212,88.4
114.6539,23.6
114.6665,82
114.6867,35
114.7296,29.6
114.7526,33.2
114.7593,39.8
114.7639,29.6
114.7991,37.7
114.8262,82.5
114.8947,63.9
114.9237,52.3
114.9787,31.7
114.9902,242.2
114.9974,17.6
115.0035,38.8
115.0039,33.9
115.017,295.6
115.0211,96.1
115.0241,46.7
115.0388,35.9
115.0404,16156.8
115.0517,179.7
115.0768,12739.9
115.079,34
115.0812,84.3
115.115,58.9
115.1165,28.5
115.1393,32.8
115.178,26.3
115.2405,40.1
115.2631,68.6
115.3967,40.6
115.4396,31.9
115.4623,39
115.4661,24.1
115.485,39.8
115.4936,37.5
115.5109,54.6
115.5253,77.4
115.7394,79.9
115.7538,31.7
115.7764,59.9
115.7805,30.3
115.8471,63.3
115.8609,32.3
115.8718,38.1
115.9029,40.5
115.921,26.2
115.9363,41.2
115.9467,49.3
115.9481,58.5
115.9544,44.2
115.9573,41.3
115.9866,70.5
115.9892,36.5
116.0333,51.6
116.0356,2086.9
116.0438,141.5
116.049,30.8
116.0622,38.3
116.072,8119.7
116.0801,157.7
116.1093,64.8
116.1163,36
116.1636,48.3
116.1792,43.7
116.2275,35.6
116.2541,29.3
116.2625,34.1
116.2806,30.9
116.2847,16.7
116.3331,29.9
116.3779,29.6
116.3871,31.7
116.3997,41.7
116.4056,43.7
116.4458,50.2
116.4561,37.4
116.5291,50.3
116.5357,80.9
116.553,42.5
116.5682,48.5
116.6215,51.6
116.6415,63.5
116.6515,32.3
116.6525,44.6
116.6901,37.2
116.7912,39.4
116.7918,38.3
116.8269,60.9
116.8388,29.3
116.866,49.9
116.9101,39.2
116.9288,3582.9
116.9444,37
116.9533,62.6
116.9599,1137.8
116.9628,385.1
116.9758,59.7
116.9776,40.6
116.9904,16.7
117.0028,40.9
117.0091,125.3
117.0196,2841.3
117.056,23267.2
117.0623,46.2
117.0753,21
117.0905,93.1
117.0924,51911.9
117.0945,195.8
117.1105,50.1
117.1295,39
117.1449,38.2
117.159,65.5
117.1828,45.6
117.2016,38.5
117.275,17.2
117.2781,47.9
117.3442,71.3
117.3803,42.4
117.4069,65.3
117.4335,62
117.4818,31.7
117.497,53.1
117.572,45.6
117.5825,44.8
117.5986,52.4
117.6141,25.2
117.6148,24.7
117.6445,31.7
117.6648,45.4
117.7079,47
117.7667,33.5
117.7732,52.3
117.8413,105.4
117.8662,78.5
117.9045,42.2
117.9138,39.8
117.9256,65.9
117.9379,31.7
117.9806,42.6
118.0192,54.1
118.0512,1779.7
118.054,50.9
118.0594,341.9
118.0958,1943.7
118.1017,51.6
118.1217,28.7
118.1625,37.1
118.1654,28.9
118.1771,38.5
118.1845,66.2
118.1954,33.7
118.2163,35.5
118.2391,42.5
118.2651,34.7
118.2793,50.1
118.2806,39.6
118.2974,33.2
118.3118,23.7
118.3425,39.4
118.3463,44.5
118.3902,38
118.4515,38.9
118.4929,51.8
118.5336,29.7
118.5374,33.1
118.6488,38.6
118.6907,53.4
118.7287,40.4
118.7353,35.7
118.7771,50.2
118.7803,49.9
118.8852,36.6
118.92,50.8
118.931,95.6
118.9425,22.4
118.952,223.4
118.9791,56.6
119.0245,58.8
119.0353,10334.4
119.0716,4607
119.0763,34.9
119.0789,30.8
119.1017,35.9
119.108,492
119.114,42.1
119.1659,34.8
119.1992,77.9
119.3556,47.6
119.3723,27.9
119.3995,26.9
119.4006,44.9
119.4185,34.7
119.5708,42.9
119.5746,28.3
119.5862,33.4
119.6079,36.3
119.676,48.5
119.7261,49.8
119.7339,38.1
119.7365,39
119.7442,44.1
119.763,40.4
119.7681,39.8
119.7741,31
119.7791,38.3
119.7824,39
119.7954,31.9
119.8386,37.6
119.8531,32.1
119.8612,17.7
119.8715,55
119.9407,31.2
119.9518,37.8
119.9641,37.3
119.9697,58.4
120.0137,46
120.0157,40.1
120.024,38.1
120.0292,41.3
120.0385,73.6
120.0669,29.9
120.0747,34
120.1993,16.7
120.2103,26.7
120.2416,61.7
120.2546,36.5
120.2881,37.2
120.2902,48.8
120.294,35.2
120.3029,51.4
120.3105,34.7
120.3507,34.8
120.3902,32.6
120.4434,51.4
120.4602,46
120.4673,34.9
120.4691,85.4
120.4718,58.2
120.5057,53.1
120.521,39.6
120.5266,34
120.5432,47
120.5495,51.3
120.5513,47.2
120.6611,39.9
120.6901,41
120.6998,36.4
120.7132,32.4
120.7856,34.3
120.8578,37.2
120.8714,44.2
120.8962,32.9
120.9063,30.7
121.0255,71.8
121.0274,22.6
121.0298,5903.1
121.0409,24.1
121.0541,67.6
121.0929,47.2
121.0968,22.9
121.1136,33.6
121.1184,37.5
121.1795,61
121.2054,53.8
121.2567,69.1
121.2588,43.9
121.2656,33.6
121.2856,74
121.2884,39.7
121.3216,30.4
121.3239,37.3
121.3265,31.4
121.342,58.1
121.3451,88.3
121.3549,30
121.3595,70.4
121.3779,44.4
121.38,70.3
121.3812,36.3
121.45,19
121.4555,32.2
121.4945,44.1
121.496,36.3
121.5044,18.9
121.5059,53.7
121.5328,44.4
121.5346,53.4
121.5842,35.7
121.5994,29.4
121.6083,39.6
121.6102,45
121.6336,68.2
121.6625,36.7
121.6648,41.6
121.6829,44.7
121.6926,31.3
121.7334,46.8
121.7514,41.6
121.7791,38
121.781,64.1
121.8126,42.7
121.8545,48.3
121.9292,62.9
121.9456,52
122.01,32.3
122.0251,109.2
122.0331,82.4
122.0613,169.2
122.1309,28.5
122.1355,29.1
122.1464,57.9
122.1603,48.5
122.1906,30.4
122.2566,61.2
122.2657,35.7
122.2711,49.6
122.2784,91.6
122.2858,45
122.4158,32.4
122.4221,57.8
122.458,46
122.4737,45.3
122.4865,30.4
122.5054,47.9
122.5927,46.7
122.6694,24.6
122.6943,42.6
122.7396,50.1
122.7465,39.6
122.7637,47.8
122.7896,28.9
122.8496,33.7
122.884,40.7
122.9028,49.9
122.9036,23.9
122.9073,25
122.9453,40.5
122.9579,48.2
122.9608,51.7
122.9678,10438.7
122.9882,53.3
122.9893,31.1
123.0454,635.6
123.0566,162.4
123.0882,48.9
123.0892,53
123.0911,29.9
123.1628,38
123.2698,33.2
123.3128,51.2
123.324,26.1
123.4219,29.9
123.4668,37.2
123.4696,96.6
123.5123,52.1
123.5206,46.9
123.5771,52.4
123.6574,30.1
123.6836,36
123.7027,42.1
123.7178,62.6
123.8149,23.9
123.8315,36.5
123.8408,51.7
123.8445,57.8
123.8545,39.8
123.8825,45.6
123.9129,84.5
123.9263,55.8
123.9688,36.4
123.9737,28.5
124.0202,58.5
124.0355,34.6
124.0363,38
124.0407,1458.1
124.0594,50.1
124.0617,58.3
124.0725,38.5
124.077,239.8
124.1028,51.1
124.1183,41.1
124.1635,77.2
124.1653,39.1
124.1687,46.7
124.1711,49.2
124.1768,35.6
124.2188,15.7
124.2698,34.9
124.2735,40.7
124.2893,31.6
124.2909,16.7
124.3347,31.1
124.3372,53.9
124.3484,40.1
124.359,29.6
124.3636,46.2
124.3655,53.7
124.4114,39
124.4186,31.2
124.4209,51.1
124.424,33.7
124.4373,38.9
124.4625,49.1
124.4759,40.3
124.506,35.5
124.5175,44.2
124.5238,58.9
124.54,56.7
124.5871,31.3
124.6036,36.8
124.6162,49.6
124.6479,57.8
124.6863,31.5
124.6878,80.8
124.7131,42.9
124.7407,24.8
124.7425,56.1
124.7564,46.8
124.7603,66.6
124.8149,64.6
124.8251,68.4
124.8433,27.4
124.8705,39.7
124.8959,46
124.9317,33.1
124.9333,50.3
124.9635,44.1
124.9834,125.2
125.0059,18.1
125.0246,88.8
125.036,110.1
125.0611,3598.2
125.0643,21.8
125.0678,54.2
125.0711,87.5
125.0845,41.1
125.1422,43.3
125.1612,29.5
125.202,33.3
125.2239,32.7
125.2316,51.4
125.2976,30.4
125.3109,44.1
125.3682,39.2
125.4212,63.7
125.4814,17.9
125.5015,36.1
125.5573,41
125.5596,55.2
125.6417,106.8
125.7009,67.8
125.703,27.6
125.7135,17.8
125.7266,32.4
125.7606,58.5
125.7824,75.8
125.785,36.8
125.8357,35
125.848,43
125.8624,71
126.0062,55.6
126.0198,137.7
126.0311,20.1
126.0439,79.7
126.0563,3587.2
126.0657,46.1
126.0928,35.8
126.1169,52.7
126.1281,35.7
126.1292,44.8
126.162,36.7
126.193,40.9
126.1961,33.7
126.374,69.6
126.3782,50.4
126.3823,25.3
126.4242,36.5
126.4465,50.5
126.4577,33.2
126.4972,39.6
126.5155,37.4
126.5843,34.3
126.6007,42.8
126.6332,64.4
126.6548,80.5
126.7235,65
126.7602,27.7
126.7845,72.2
126.8605,37.1
126.8618,50.4
126.8901,40.4
126.9664,51.8
127.0016,59
127.0151,79.9
127.0379,10519.3
127.0403,6989.6
127.0515,1126.5
127.0699,64.8
127.0767,1673.3
127.0879,32.5
127.1318,41
127.1463,40.4
127.1946,46.1
127.2458,36.7
127.3215,67.9
127.3233,34.8
127.338,32
127.3484,33.8
127.3817,38.1
127.385,77.3
127.4759,43.2
127.4773,26.4
127.5223,21
127.5658,37.9
127.5697,92.8
127.5856,35.3
127.6657,47.6
127.6756,43.9
127.7742,45.5
127.7927,25
127.7991,37.8
127.8187,41.6
127.8941,28
127.8982,30.1
127.9033,40
127.9141,58.4
127.9255,39.4
127.9501,51.3
127.9785,1314.4
128.0009,60.9
128.0332,52
128.0356,3336.7
128.0412,53.3
128.072,2467.2
128.1054,43.1
128.1142,33.1
128.1654,33.7
128.1899,23.3
128.2105,39.7
128.2133,17.9
128.2175,35.2
128.2383,40.2
128.2399,36.8
128.2498,52.8
128.2949,50.9
128.3101,41.4
128.3203,32
128.3481,47.5
128.3541,40.3
128.3934,30.3
128.536,48.1
128.5455,38
128.5813,17.4
128.6384,45.2
128.6498,42.9
128.6842,36.2
128.7078,34.9
128.7616,39.6
128.7634,39.5
128.7857,66
128.912,46.5
128.9145,41
128.9598,3420.6
128.9646,38.9
128.9808,2911.2
129.0196,770.2
129.031,64.1
129.039,22.4
129.056,11367.5
129.0581,31
129.0672,126.4
129.0923,4497
129.1089,53.6
129.1324,47.1
129.1908,47.7
129.2075,38.1
129.241,64.3
129.2626,56
129.2806,39.6
129.2948,59.6
129.3136,37.1
129.3184,37.2
129.3471,16.8
129.3635,33.4
129.3709,70.6
129.3736,32.2
129.5522,37.9
129.5964,45.7
129.6059,65.9
129.6124,92.4
129.6725,18.8
129.7043,31.4
129.7158,39.7
129.7257,33.7
129.8237,48.5
129.8581,35.9
129.8691,21.3
129.8729,50.4
129.955,42.5
129.9589,32.6
129.9751,39.5
129.99,35.1
130.0223,54.8
130.029,59.8
130.0512,3598.5
130.0619,50.5
130.0637,179.1
130.0876,7444.2
130.1731,22.8
130.1847,44.5
130.1869,16.8
130.2096,52.6
130.2872,29.6
130.3227,64
130.3409,38.2
130.361,44.7
130.3946,38.2
130.3996,47
130.4044,33.4
130.4212,37.8
130.4367,39.7
130.4467,38.3
130.4707,39.8
130.5399,81.2
130.5488,59.1
130.6078,37.8
130.7098,72.8
130.7182,47.8
130.7243,34.8
130.7566,48.9
130.7605,36.2
130.8005,17.8
130.8525,38.8
130.8542,33.4
130.9579,169.1
130.9623,34
130.9722,37.1
130.9761,64.1
130.9861,58.2
130.9929,70.3
131.0167,51.1
131.0352,8727.7
131.0716,9481.1
131.0735,35.2
131.091,37.5
131.108,1189.5
131.1359,80.4
131.1858,38.6
131.2061,64.9
131.2131,47.7
131.2171,63.1
131.2529,41
131.3805,39.9
131.5616,50.4
131.5775,60.5
131.5831,92.9
131.6052,43.7
131.7905,34.3
131.9022,57.6
131.9111,22
131.9143,31.9
131.9497,40
131.9516,17.7
132.0122,69.2
132.0304,416
132.0653,32.9
132.0669,2743
132.0748,69.3
132.1032,448.4
132.1535,31.4
132.1891,63.8
132.2549,67.8
132.2956,42.4
132.3445,70.3
132.3983,66.9
132.4327,34.8
132.449,99.8
132.509,32.2
132.5152,37.8
132.5501,39.4
132.6248,36.7
132.6952,61
132.7468,37.3
132.7642,30
132.7735,20.4
132.8338,68.1
132.8884,69.5
132.9701,67.1
133.0124,43.6
133.0145,297.9
133.0345,41.3
133.0405,31.8
133.0509,16644.8
133.0651,53.1
133.0703,44.1
133.0872,20926.3
133.0938,26.6
133.106,39.2
133.1142,33.6
133.1173,66.2
133.1452,50.6
133.1646,26.7
133.1902,34.3
133.2227,36
133.3456,34.6
133.3635,36.7
133.3807,38.6
133.3903,28.1
133.4014,49.2
133.5736,46.1
133.617,30.4
133.6339,37.8
133.6553,43.5
133.6613,26.7
133.6701,53.9
133.674,46.3
133.7042,53.4
133.7281,18.8
133.7872,41.7
133.8018,33.4
133.8194,63.4
133.874,49
133.9141,29.9
133.9351,36.1
134.0542,38.7
134.0906,398.2
134.1032,48.5
134.1406,34.9
134.1725,29.6
134.2305,43.4
134.2434,35.3
134.2475,60.4
134.2765,68.5
134.323,58
134.3305,68
134.3515,44.8
134.3797,64.6
134.4149,62.1
134.4268,34.3
134.4823,61.9
134.4996,35.2
134.521,28.6
134.5472,72
134.5576,28.9
134.5903,37.1
134.6558,24.6
134.6787,29.7
134.7033,54
134.7264,35.8
134.8061,69.8
134.8121,60.9
134.8135,33
134.8828,36.4
134.8949,51.2
134.9699,37
134.9733,12164.3
134.9882,701.6
135.012,227.6
135.0301,1377.8
135.0454,387.4
135.0498,39.4
135.0607,16.6
135.0666,103.9
135.069,37.6
135.0767,72
135.1079,64.3
135.1105,36.4
135.1134,37.7
135.2251,27.5
135.2601,32.6
135.2777,46.5
135.3194,89.6
135.4079,37.8
135.4669,37
135.4874,47.5
135.5002,34.7
135.5277,18.2
135.5441,23.1
135.5555,38.2
135.5592,32.9
135.5807,59.2
135.6514,78.8
135.655,51.7
135.6997,57.8
135.7625,36.1
135.7887,35.9
135.8319,35.7
135.8411,32.9
135.8793,43
135.8818,62.4
135.8917,41.5
135.909,60
135.9185,43.5
135.9189,41.8
135.9201,39.5
135.926,36.4
135.9478,31.7
135.9727,45.1
136.0089,59.1
136.0159,35.8
136.0406,122.7
136.0439,2114.4
136.0535,103.8
136.061,44.4
136.0656,61
136.088,65.6
136.098,47.3
136.1189,31.5
136.1996,58.7
136.2324,30.9
136.2432,35.8
136.2937,15.8
136.3077,35.1
136.3306,44.2
136.3394,47.7
136.3453,35.9
136.3658,31.3
136.4346,43.5
136.4443,18.6
136.4549,45.6
136.4608,51.8
136.542,44.6
136.5578,75.4
136.5977,61.8
136.6191,42
136.6652,55.8
136.6939,35
136.7077,42.5
136.757,27.4
136.7711,29.3
136.7771,30.4
136.7812,26.7
136.8074,34.2
136.8099,40.9
136.8186,18.2
136.8807,59.6
136.9296,179.9
136.9512,47.8
136.9534,44.2
136.9571,42.6
136.981,31.7
137.0044,47.1
137.0226,194.9
137.0252,2575.9
137.0278,156244.7
137.0302,2425.6
137.0325,42.4
137.0359,26.3
137.0513,86.4
137.0531,37.4
137.0585,47.6
137.061,627.9
137.0723,123.7
137.0809,48.8
137.0977,116.8
137.1474,57.1
137.1875,66.8
137.2172,35.4
137.291,32.5
137.3099,39.8
137.3283,50.6
137.3414,34.2
137.3962,32.5
137.4026,36.9
137.5003,42.8
137.5122,39.8
137.5532,29.6
137.5579,35.4
137.6187,42
137.6327,75.2
137.6364,49.8
137.6412,61.5
137.6544,92.3
137.6658,38.3
137.6694,40.2
137.6719,34.4
137.6734,19.6
137.7256,44.5
137.7322,48.6
137.7932,63.3
137.8156,48.2
137.9575,35.3
137.9693,33.3
138.0144,30.7
138.0199,308.1
138.0273,6179.4
138.0311,3794
138.0562,1979.4
138.0822,63.8
138.1251,45.4
138.146,45.7
138.1465,50.2
138.147,47.4
138.1574,34.2
138.166,41.3
138.1901,27.3
138.1943,38.1
138.2259,34.1
138.2846,41.6
138.3402,49
138.3424,46.1
138.3575,39.4
138.3739,49.1
138.3974,56.8
138.4028,20.7
138.4216,35.7
138.4241,69.9
138.4404,41.9
138.4564,63.2
138.4644,46.4
138.5497,49.4
138.5671,37.4
138.5744,61.5
138.6409,72.1
138.6506,35.1
138.7323,38.8
138.7745,30.7
138.8329,33.2
138.8929,58.4
138.9188,41.3
138.925,59.4
138.9417,302.1
138.9512,28.8
138.9878,26.1
139.0072,159.1
139.0245,4146.9
139.0318,169.8
139.0354,185.9
139.0403,619.4
139.0515,426.1
139.0577,67
139.0766,1907
139.167,56.9
139.217,31.2
139.2624,90
139.3488,40.2
139.4404,58.1
139.4435,46.4
139.4966,51.4
139.5218,45.3
139.5269,43
139.5432,40.5
139.5571,47.4
139.577,41.9
139.5873,39.3
139.6341,33.4
139.6842,56.1
139.7109,36.3
139.7226,46.1
139.7247,41.3
139.7595,62.6
139.7933,28.5
139.804,41.4
139.8117,43.9
139.8194,18.8
139.9513,35.9
139.9594,36.8
139.9694,50.9
140.0355,814.9
140.0694,81.2
140.0719,3212.5
140.0789,57.9
140.1082,70.1
140.1163,56.8
140.1393,30.3
140.1544,54.8
140.1871,42.6
140.1995,18.9
140.2008,46.1
140.3401,35.9
140.3499,56.6
140.3794,22.6
140.3932,33.8
140.4157,52.9
140.4487,37.2
140.4552,70.9
140.4654,38.5
140.5768,37.6
140.5801,50.9
140.6992,44.3
140.7818,40.8
140.7963,35.2
140.8312,44.2
140.8396,32.3
140.8415,47.9
140.8997,57.3
140.9018,71.7
140.9049,38
140.9176,245.7
140.934,82.1
140.9632,67.4
140.9826,49
140.9863,7840.6
140.9909,68.4
140.9953,45.4
141.0018,4204.2
141.0173,35.2
141.0196,175.9
141.0307,35.5
141.0417,17.9
141.0559,5351.4
141.0671,781.2
141.0725,40.6
141.0782,61.1
141.0899,18275.8
141.0923,424
141.1583,35.8
141.1879,44.7
141.2222,37
141.2469,32
141.2631,42.6
141.2839,28.4
141.3066,68.8
141.3385,35.3
141.3911,30.1
141.3919,28.9
141.4219,38.7
141.4374,58.2
141.4921,47.6
141.5025,45.9
141.5426,65.7
141.7065,22
141.7659,39.8
141.9107,39.9
141.912,63.1
141.9317,55.6
141.9854,39.3
141.9901,86.6
142.0045,55.9
142.0113,69.1
142.0488,131.1
142.0512,4453.3
142.0587,49.8
142.0875,1434
142.0933,152
142.0975,35.7
142.1318,35.3
142.1638,34.3
142.2776,35.6
142.2843,52.7
142.3332,55.1
142.3703,27.7
142.3761,77.1
142.3997,31.7
142.4032,36.9
142.4164,41.4
142.4214,23.4
142.4625,52
142.5063,61.3
142.5355,29.3
142.6535,90.5
142.6751,44.5
142.7073,30.7
142.7145,35
142.72,44.7
142.7843,73.6
142.8262,33.2
142.8367,22.6
142.8809,34.9
142.894,37.5
142.9176,50.1
142.9231,76.3
142.9495,216.6
142.9542,67.1
142.9777,35.1
142.9837,55.1
142.9962,22.8
142.9978,30.1
143.003,48.7
143.0057,32.2
143.0117,139.8
143.0287,34.3
143.0327,13034.9
143.0351,4402.6
143.0465,57
143.0547,68
143.0609,54
143.0686,49.1
143.0715,6257.6
143.0828,518.9
143.0891,65.8
143.1045,31.7
143.1079,3872.3
143.1453,32.9
143.157,70
143.1656,61.7
143.1796,41.6
143.3014,47.3
143.3295,63.2
143.3598,61.7
143.3643,75.1
143.3688,42.4
143.4031,33.4
143.4076,42.1
143.4749,48.3
143.5338,39.6
143.5533,39.8
143.563,26.3
143.6356,38.7
143.7231,81.6
143.737,63.4
143.7481,77.8
143.7566,61.8
143.7747,18.1
143.8115,54.2
143.9017,42.6
143.9422,48.4
143.9458,41.4
144.0282,39.5
144.0304,461.6
144.0456,116.2
144.0594,31.7
144.061,21.4
144.0668,5352.1
144.0741,56.5
144.0948,45.4
144.1032,1286.9
144.1155,73
144.1438,43.2
144.2372,32.6
144.261,45.1
144.2729,33.4
144.2769,55.4
144.3209,33.8
144.3343,46.6
144.3853,50.9
144.4047,18
144.4121,40.8
144.4368,29
144.5393,58
144.5614,31.5
144.5761,29.2
144.5768,29.9
144.5775,38.4
144.5812,42.6
144.5868,51.2
144.625,33.9
144.6516,51.2
144.6989,38.7
144.7286,49
144.7383,43.1
144.8255,26.9
144.844,30.2
144.8459,65.3
144.8655,50.1
144.875,28.6
144.9466,68.8
144.9545,239.8
144.9626,25.9
144.9728,40
144.9756,18756.3
144.992,54.6
145.0128,36.3
145.0142,117.7
145.0195,63.7
145.0318,35.9
145.0382,2720.3
145.0508,8990.8
145.062,757.3
145.0872,5788.5
145.0989,65
145.0993,65.8
145.1741,51.9
145.236,23.6
145.2379,37.8
145.2402,35
145.2787,34.9
145.3374,58.2
145.346,30.4
145.359,34.1
145.4006,37.7
145.455,59.8
145.4649,31.9
145.5399,78.1
145.6908,42
145.7689,50.4
145.8018,29
145.8044,40.4
145.8928,54.3
145.9301,74.5
145.9851,44.5
145.9975,65.3
146.0328,28.9
146.046,2003.2
146.0612,89.6
146.0697,47.3
146.0806,85
146.0824,3845.9
146.0976,1075
146.1188,340.7
146.1296,35.8
146.1506,47.1
146.1964,72.5
146.2063,32.8
146.2455,41.5
146.2596,35.9
146.2886,34.7
146.357,18.7
146.4419,58.6
146.4447,40.6
146.4666,48.2
146.4784,36.6
146.484,31.1
146.4912,35.3
146.503,37.8
146.5136,89.1
146.5361,75.2
146.5813,26.2
146.6446,38
146.6837,29.6
146.7288,47.5
146.8125,46.9
146.8408,28.1
146.8484,70.7
146.8663,64.2
146.9217,29.4
146.9613,295.7
146.9664,65.1
146.9805,41.1
146.9833,37
146.9861,48.4
147.002,41.4
147.0045,43.7
147.0301,4303.6
147.0664,24268.1
147.0692,31.2
147.0776,109.5
147.0802,80.5
147.0811,81.2
147.0883,41.9
147.0986,34.5
147.1028,4526.7
147.1129,51.4
147.1196,36.7
147.1814,36.4
147.2528,34.1
147.2616,34.7
147.2832,42.3
147.2855,18
147.2988,29.9
147.3758,34.9
147.4393,27.5
147.4525,72.1
147.4544,23.6
147.477,39.9
147.4909,37.5
147.5117,37.2
147.5226,73.9
147.5326,39.1
147.5478,38.5
147.5631,123.7
147.5905,19.6
147.6133,41.1
147.6441,42.4
147.6787,36.6
147.7216,34.2
147.7239,24.1
147.7994,41.4
147.8336,40.1
147.8519,58.4
147.9624,34.7
148.0253,41.4
148.0408,81.2
148.0617,1307
148.0698,533.9
148.0818,60
148.0978,519.2
148.0999,46.3
148.1027,85.7
148.1061,91.3
148.1093,57.9
148.1133,6464.6
148.2134,49.7
148.3741,51.6
148.3845,31.9
148.3891,65.5
148.4052,36.6
148.4479,72.3
148.4589,40.6
148.4668,48.6
148.4808,20.3
148.4895,37.2
148.4986,36.6
148.5398,57
148.5942,54.9
148.6517,62.2
148.6544,32.8
148.743,74.5
148.7562,39.3
148.8614,45.6
148.8868,34.7
148.8999,69.1
148.9342,56.8
148.9565,67.5
148.9876,65.3
149.0032,20.1
149.0138,48.8
149.0349,22.2
149.0401,31.6
149.0457,6865.1
149.0598,43.7
149.0611,26.6
149.0718,28.6
149.0821,4721.9
149.1014,68.7
149.1026,41.1
149.1037,40.6
149.1441,34.5
149.276,56.8
149.3116,64.3
149.33,38.9
149.3363,54.6
149.4237,57
149.4678,38.8
149.5505,68.6
149.557,37.5
149.5681,30.1
149.5739,47.1
149.6697,29.5
149.7023,53
149.7289,49.4
149.7965,75.7
149.8258,43.1
149.8531,54.4
149.8666,57.4
150.0171,32.3
150.0561,309.2
150.073,47.4
150.0854,71.9
150.0896,34.9
150.0928,44.5
150.0955,42.1
150.1533,37.2
150.2027,34.3
150.207,21.9
150.2496,36.4
150.2673,45.4
150.2996,36.4
150.3261,21.8
150.3325,80.5
150.3543,35.7
150.3875,53
150.4216,34
150.4612,28.8
150.516,16
150.54,31
150.5432,33.9
150.5516,55.2
150.5959,27.7
150.7015,64.2
150.7342,39.3
150.7454,58.3
150.7982,29.7
150.8768,46.6
150.9343,57.5
150.9473,187.8
150.9626,15907
150.983,1326.1
151.007,104.3
151.0188,38.3
151.0324,31.4
151.0402,23.6
151.0514,308.2
151.061,68.3
151.0766,549.2
151.0881,47.8
151.1166,33
151.2258,33
151.3783,54.8
151.404,33.9
151.4083,39
151.5572,32.8
151.5962,58.6
151.6031,34.7
151.6312,58.1
151.6529,51.8
151.662,39.3
151.7052,32.4
151.7339,48.2
151.76,60.6
151.7999,43.4
151.8217,60.5
151.831,20
151.8369,38.4
151.8912,43
151.9082,38.3
151.9579,97.7
152.0354,159.3
152.0615,27.9
152.0695,85.5
152.0718,1204.5
152.1083,34.3
152.1326,46.1
152.1965,30.2
152.2723,62.3
152.3104,38.7
152.3179,48
152.3248,67.2
152.3303,46.5
152.3441,33.1
152.3462,45.8
152.3583,44.4
152.3657,41.5
152.3697,44.6
152.4616,67.3
152.5373,39.6
152.5632,17.9
152.6293,51.9
152.6682,38.9
152.6842,68.2
152.7366,28.9
152.7409,32.9
152.7658,36.8
152.7947,16.3
152.8272,37.9
152.9013,40.4
152.9197,53.1
152.9396,20
152.9725,22.5
152.9783,4707.8
152.9886,18.5
153.0031,36.6
153.0171,34.3
153.0376,49.9
153.0558,1884.5
153.0671,959.8
153.0922,1728.9
153.1574,46.5
153.1901,33.6
153.2159,49.1
153.2185,21.1
153.2677,45.8
153.3031,47.8
153.3186,38.7
153.3355,78.6
153.3436,39.1
153.3598,41.4
153.4244,25.2
153.4803,67.1
153.5505,38.1
153.5713,29.7
153.5985,24.9
153.6171,100.6
153.6326,45.4
153.6501,32.5
153.6602,37.6
153.7194,42
153.7216,35.1
153.7748,58.4
153.7775,47
153.8152,36.2
153.8281,43.5
153.8489,37.2
153.9655,40.8
153.9734,106.8
153.9815,22.1
153.9939,43.4
154.0194,37.5
154.0218,88.4
154.0511,2774.5
154.0644,29.6
154.0713,50.4
154.0875,2168.8
154.1497,37.8
154.1969,48.7
154.201,39
154.2745,36.9
154.2901,49.6
154.3843,35.6
154.3871,71.4
154.3896,38.4
154.3918,37.3
154.3937,60.9
154.4053,72
154.4898,35.9
154.4969,30.4
154.5413,58.4
154.5447,74.9
154.579,51
154.6001,43.6
154.6549,44.5
154.6646,49.6
154.6984,69.1
154.8747,44.5
154.9297,49.9
154.9349,106.2
154.9451,79.6
154.9475,8940.9
154.9598,388.5
154.9983,35.7
155.0351,633.7
155.0464,188.6
155.0715,4528
155.0827,1058.7
155.1079,324.4
155.2246,62.6
155.2442,31.1
155.2856,43.4
155.2955,54
155.3212,51.3
155.3403,57.5
155.3743,32.2
155.3809,78.1
155.3989,39.7
155.4101,65.3
155.4401,45.5
155.4427,43.5
155.4981,35.3
155.6575,38.6
155.6709,34.3
155.6759,62.4
155.6763,63.4
155.6774,33.5
155.6887,52.8
155.7029,46.3
155.835,53.7
155.8378,32.1
155.855,30
155.9322,82.7
155.945,33.8
155.947,139.2
155.9806,37.6
155.9929,35
155.9969,56.9
156.0092,56.2
156.0126,20349
156.023,254.2
156.0303,107
156.0668,4718.1
156.1032,901.2
156.2164,44
156.23,39.8
156.3319,88.1
156.3427,38.6
156.3508,51.6
156.3685,80.2
156.3734,39.4
156.4581,51
156.5375,44.7
156.5596,40.1
156.5652,31.6
156.621,41.2
156.7095,47.7
156.8525,30.7
156.8884,40.8
156.8933,42.6
156.9294,34.8
156.9301,56.6
156.9414,42.5
156.9445,40.7
156.9472,80.4
156.9552,1726.8
156.9832,38.6
156.997,48.1
157.012,747.5
157.0158,193.8
157.0213,34.1
157.0229,73.6
157.0301,45.2
157.0508,4564.4
157.062,1093.5
157.0806,26.9
157.0872,5010.7
157.0984,1174.7
157.1063,57
157.1118,44.2
157.1235,3886.7
157.1779,78.1
157.2052,50.2
157.2072,17.5
157.2415,38.5
157.2629,35
157.3249,60
157.3374,44
157.3639,36.8
157.3867,62.4
157.4254,46.4
157.4326,40.1
157.57,64.5
157.574,69.3
157.647,50
157.7007,19.9
157.7216,45.5
157.7592,39.3
157.7647,66.7
157.8119,30.4
157.8242,50.3
157.8312,67.2
157.9098,41.8
157.9313,35.3
157.9621,53.9
158.0012,38.8
158.0292,50
158.032,32
158.046,2465.3
158.0541,38
158.0824,5095.9
158.1192,68
158.1477,33
158.1811,118.1
158.2198,58.6
158.2368,33.8
158.2542,51.9
158.3102,28.3
158.3409,64.6
158.4768,38.8
158.4859,55.4
158.4963,30.3
158.5377,46.7
158.5437,43.1
158.5837,32.4
158.6047,56.1
158.6166,41.5
158.6184,22.4
158.6388,38.4
158.6578,33.3
158.6765,75.9
158.7339,29.3
158.7484,16.8
158.8345,28.8
158.9444,83.9
158.9757,25.6
158.9787,141.8
159.0066,1078.3
159.0279,138.5
159.03,793.8
159.0409,88.7
159.0483,59.9
159.0664,8175.8
159.0689,84.3
159.0776,391.6
159.1028,5244.2
159.1192,102.8
159.1608,54.3
159.21,31.3
159.2446,34.3
159.365,39
159.3814,52.3
159.4379,29.3
159.5931,29.8
159.6759,30.5
159.7301,38.6
159.7509,51.1
159.7592,54.6
159.7699,40.5
159.7754,59.8
159.7887,34
159.7925,39.7
159.7955,38.3
159.8569,19.2
159.8605,38.4
159.8993,22.3
159.9354,29.2
159.9669,61.3
160.0314,44
160.0617,3659.1
160.068,42
160.0697,74.7
160.098,3833.8
160.117,55.3
160.1214,40.9
160.2046,28.4
160.2148,34.9
160.2444,39.3
160.3068,76
160.3733,40.6
160.4338,45.1
160.4618,40
160.4648,90.8
160.4778,45.7
160.4788,69.1
160.5311,38.9
160.5797,40.8
160.5855,51.1
160.6363,36.9
160.7533,30.3
160.8224,54.2
160.8474,33.2
160.9044,87.9
160.9495,2479.4
160.9609,32.6
160.9856,28.7
161.0053,64
161.0133,50.4
161.0207,59.9
161.0349,67.3
161.0457,13360.5
161.0821,11617.7
161.0935,150.7
161.1184,5242.9
161.1211,93.1
161.1814,65.9
161.2336,41.2
161.2627,34.2
161.3237,38
161.3783,51.5
161.3912,45.2
161.4118,31.9
161.5624,42.8
161.6314,48.2
161.7428,38.3
161.7816,39.9
161.8193,92.5
161.8219,47.4
161.8535,59.1
161.8888,47.3
161.9407,46.2
161.9517,51.8
161.9817,39.1
162.0178,19.6
162.041,171.6
162.0491,110.9
162.0559,39
162.0605,36
162.0773,2794.7
162.0855,151.5
162.0945,41.8
162.1137,279.8
162.1308,34.2
162.1444,58.3
162.1823,39.1
162.2321,30.8
162.301,56.8
162.3854,53.1
162.4357,45.2
162.452,44.1
162.4687,52.3
162.6658,35.4
162.7242,20.9
162.7382,28.7
162.7823,69.5
162.8389,47
162.9422,44.7
162.9602,1160.4
162.9681,6755.8
162.983,134.3
163.025,52.9
163.0331,31.4
163.0441,52.3
163.0613,20021.9
163.0645,40.1
163.0977,2421.8
163.1391,28.1
163.2221,41.1
163.3185,40
163.3375,82.7
163.3484,35
163.3683,71.3
163.4313,42.3
163.4732,31.2
163.5,39
163.5494,38.1
163.5501,45.3
163.5882,36.6
163.5975,52.1
163.6015,30.8
163.6185,37.9
163.639,34
163.6824,38.5
163.7434,37.8
163.8044,34.6
163.831,37.5
163.8457,37.2
163.8714,62.3
163.9236,15.6
163.9677,30.9
164.0116,6833.7
164.0355,23.3
164.0647,243.7
164.0718,641.6
164.1986,48
164.2684,38.6
164.3107,44
164.349,55.1
164.5031,42.4
164.513,83.6
164.5328,24.3
164.5776,32
164.596,30.1
164.7217,61.8
164.7432,39.2
164.8901,38.8
164.8989,50.5
164.9274,148.8
164.9572,187.2
164.9785,68.5
165.0146,11139.5
165.0193,74.1
165.0349,116.7
165.0407,157.3
165.0558,214.4
165.0675,28.3
165.077,759.3
165.0922,155.5
165.1064,31.3
165.16,18.7
165.164,41.6
165.1939,43.9
165.2107,56.5
165.3944,26.7
165.482,61.3
165.5268,36.1
165.8478,48.4
165.8545,31.5
165.865,32.9
165.8792,19
165.9444,67.5
165.9608,43
166.0185,34
166.0203,30.6
166.0222,57.5
166.0353,36.8
166.0382,42.6
166.0511,434.9
166.0621,40.1
166.0698,35.4
166.0848,492.9
166.0875,4037
166.1996,47.1
166.274,37.5
166.3108,37.6
166.38,37.2
166.402,47.7
166.4248,44.2
166.4905,33.6
166.5294,31.1
166.5355,56.5
166.5424,30
166.6425,38.6
166.6545,42.7
166.6875,46.9
166.7114,54.4
166.8467,53
166.8557,45.8
166.9184,50.6
166.9245,40
166.9365,2427.4
166.9539,253.8
166.9575,68908.1
166.9606,137.3
166.983,75.3
166.9918,76.8
167,46.1
167.0211,282.8
167.0302,598.7
167.0462,37.2
167.0535,29
167.0715,2426.6
167.0827,403
167.1077,402.7
167.1117,46.6
167.1142,33.1
167.1394,48.3
167.1734,41.6
167.2451,80.6
167.2877,34.8
167.3165,33.3
167.4103,90.2
167.4418,33.3
167.4516,46.8
167.4911,30.5
167.7355,52
167.7533,38.2
167.8628,55.6
167.8919,71.4
167.9092,36
167.9515,51.7
167.9582,36.4
167.9608,196.9
167.9927,41.3
168.0261,45.8
168.0667,2652.2
168.0726,117.2
168.0779,67.4
168.091,33.2
168.096,48.1
168.103,1521
168.2153,89.6
168.2244,39
168.231,47.1
168.2893,43
168.3259,33.1
168.4045,84.7
168.4121,32.8
168.4362,42.5
168.505,54.6
168.5645,50.7
168.5778,47.1
168.5955,40.8
168.6027,72
168.6041,83.9
168.6051,45
168.6857,64.6
168.699,42.6
168.7035,51.6
168.7265,39.9
168.7867,40.5
168.8662,36.4
168.8748,56.5
168.9103,42.3
168.916,38.7
168.9522,318.1
168.9629,58.6
168.9731,561.9
168.9894,68.5
169.0248,51.1
169.0395,30.5
169.0478,46
169.0507,1420.4
169.062,996.2
169.0726,36.1
169.0872,3701.6
169.0984,1017.8
169.1018,46.2
169.1086,41.9
169.1123,37.1
169.1237,83.5
169.1403,32.5
169.1786,36.2
169.1964,36.5
169.2292,39.5
169.2449,43.5
169.272,61.8
169.3314,34.9
169.3988,48.8
169.415,36.9
169.5343,16.2
169.5355,15.2
169.5384,40.2
169.5656,65.7
169.6472,33.4
169.6844,30.5
169.6885,33.5
169.7623,59
169.7756,46
169.8028,95.1
169.8167,32.6
169.8791,41.7
169.9434,27.5
169.9477,18.8
170.0253,586.9
170.046,1224.2
170.0547,61.8
170.0824,4695.2
170.0893,52.7
170.0996,71.9
170.1017,32
170.1129,80.7
170.1188,1980.7
170.1578,49.3
170.2198,40.9
170.3006,42.7
170.3028,37.3
170.3587,58.5
170.382,46.5
170.4021,24.1
170.5126,38
170.6072,37.6
170.7209,37
170.7817,58.4
170.799,32.3
170.8114,49
170.9123,42.6
170.9444,603.2
170.9571,35.6
170.9818,35.1
171.0276,190.1
171.03,296.3
171.0407,35.5
171.0664,7346.9
171.0776,1860.2
171.1028,4465.3
171.114,207.3
171.1392,1651.9
171.1886,44.8
171.1951,45.3
171.2464,57.3
171.2593,30.6
171.4355,51.1
171.5016,61.8
171.5402,48.4
171.5427,36.1
171.5723,44.8
171.5887,41.7
171.5946,72.1
171.7527,33.3
171.7708,52.4
171.7952,72.9
171.8046,18.6
171.836,39.1
171.9185,40.3
171.9605,687.8
171.9854,42.3
171.9949,41.5
172.0523,35.4
172.0616,4693.3
172.0697,92.7
172.0726,43.8
172.0834,30.7
172.098,5858.2
172.106,19.3
172.2052,38.7
172.3484,50.8
172.3517,25.3
172.3694,21.2
172.4874,39
172.545,39.1
172.5542,43.2
172.5708,44.7
172.581,27.3
172.5876,47.1
172.6908,32.6
172.7004,50.6
172.8297,41.8
172.8731,35.6
172.8975,59.6
172.9079,48
172.9178,35.9
172.9414,203
172.9547,162.2
172.958,70447.4
172.9615,92.2
172.9704,1096.7
172.986,23.2
172.9978,41.7
173.0403,23.4
173.0457,2627.3
173.0488,69.4
173.0548,27.7
173.0569,95.7
173.082,9156.1
173.0933,448.2
173.105,47.1
173.1184,7860.8
173.126,40.4
173.1752,29.8
173.1762,45.4
173.1768,44.1
173.3958,40.6
173.4293,38.1
173.4591,40.3
173.5016,52.1
173.5057,37.5
173.5547,35.7
173.5579,71.1
173.6004,39.6
173.6028,41.3
173.6644,84.9
173.6739,55.5
173.6785,32.9
173.7092,47.7
173.7893,63
173.8797,34.2
173.9576,5983.7
174.0409,448.7
174.0625,72.5
174.0773,4943.9
174.0852,131.7
174.1136,3231.6
174.1217,134.5
174.1303,42.1
174.1421,40.2
174.1668,37.5
174.1911,32.3
174.1946,38.2
174.2392,60.7
174.3038,32
174.4076,35.5
174.4126,33.1
174.4266,58.3
174.4391,43.4
174.4562,34.2
174.463,42.7
174.4918,31.9
174.524,70
174.8213,55.7
174.8314,57.1
174.9212,45.3
174.9469,44.5
174.9486,26.6
174.9554,4671.2
174.9619,127.2
175.0253,74.4
175.0613,10027.5
175.0724,280.3
175.0977,9645.8
175.1089,131.4
175.1341,11400.6
175.1375,32
175.1563,46.7
175.1874,29.8
175.2522,18.6
175.2729,50.7
175.2751,33.3
175.2864,38.4
175.329,46.4
175.4539,43.4
175.4614,39.2
175.5003,47
175.5628,65
175.6067,33.4
175.6143,42.1
175.6621,39
175.686,25.9
175.6886,60
175.6927,20.5
175.7065,40.9
175.7153,34.2
175.7413,52.2
175.747,60.3
175.8149,61.1
175.9515,56.2
175.955,38.8
175.9594,60.1
175.9933,39.9
176.0565,1068
176.0651,137.4
176.0688,34.2
176.0929,4170
176.1012,87.5
176.1293,327.2
176.1375,146.4
176.165,33.5
176.2017,39.1
176.243,22.1
176.2493,49.8
176.2829,33.1
176.2932,39.4
176.3622,47.1
176.4055,34
176.4272,66.3
176.4828,53.6
176.5843,47.1
176.5975,39.6
176.6083,107.9
176.6205,63.6
176.6716,49.7
176.7657,83.8
176.7906,43.7
176.8078,45
176.8142,84.4
176.831,32.9
176.8435,91.8
176.8586,31.4
176.9263,52.9
176.9576,42.7
176.9606,58.8
177.0201,23402.9
177.0287,66
177.0406,2493.1
177.059,147.8
177.0675,17.6
177.0769,18143
177.088,82.6
177.1133,5574.9
177.1312,32.2
177.1391,31.2
177.16,48.5
177.2113,19.8
177.2685,57.6
177.3366,36.3
177.3937,32.5
177.4185,52.6
177.5542,34.3
177.6044,33.4
177.6993,33.9
177.7082,53.3
177.7152,37.8
177.7176,46.8
177.7596,35.8
177.7919,40.4
177.8246,44.5
177.8906,56
177.9791,72.3
178.0198,257.6
178.042,31.5
178.051,128.2
178.0722,308.8
178.0803,459.6
178.0875,101.2
178.117,149.8
178.1806,48.5
178.1921,59.7
178.2076,27.6
178.2321,46.1
178.2449,32
178.3128,33.4
178.356,27.4
178.3846,34.1
178.3918,33
178.4768,19.7
178.5062,58.9
178.5365,61.7
178.6546,75.3
178.7192,33.4
178.7625,42.7
178.8343,37.3
178.8431,65.2
178.8578,17.4
178.9228,50.5
178.9319,31.8
178.942,298.8
178.963,15404.5
178.9667,36.7
178.9779,2731
178.9937,78.5
179.0169,71
179.0562,5865.3
179.0716,403.4
179.0746,15211.4
179.0825,208.6
179.0925,3637.9
179.1685,31.6
179.1914,36.9
179.2957,24.6
179.311,33.6
179.3429,42.3
179.3578,49.8
179.3806,79.9
179.384,38.6
179.4706,41
179.511,42.1
179.5192,42.2
179.685,67.2
179.7854,21.2
179.8716,35.3
179.9013,63.9
179.9628,81.9
180.0497,44.7
180.0667,956.7
180.0779,63
180.1029,308.7
180.1103,55
180.1627,53
180.1703,41.4
180.1983,81.8
180.3732,48.6
180.3953,33.9
180.4622,88.1
180.4674,46.7
180.5694,42.4
180.6128,36
180.6154,42.1
180.6247,37.5
180.6584,40.6
180.6844,32.4
180.7989,36.9
180.9194,47
180.9263,1732.6
180.9694,105.5
180.9731,10409.7
180.9884,213.4
181.0509,71.3
181.062,307
181.0717,61.1
181.0766,64
181.0825,84.8
181.0872,1111.5
181.0983,196.3
181.1171,78.8
181.2128,37.1
181.2461,34.8
181.381,57.4
181.4103,39.7
181.4372,45.1
181.5203,34.7
181.527,56.4
181.6,76
181.7624,41.9
181.9569,56.7
181.9685,78.3
181.9764,242.3
181.9917,35.5
182.0432,17
182.0459,140.9
182.0584,18.5
182.0824,3284
182.0934,100.5
182.103,32.4
182.114,33.3
182.1329,33.5
182.155,112.5
182.2051,41.6
182.2303,34.5
182.3665,36.1
182.3768,37.9
182.472,73
182.4761,49.2
182.5172,46.7
182.5255,34.6
182.5828,41.7
182.6361,68.2
182.6622,60.5
182.6881,38.2
182.6893,52
182.6902,47.2
182.7059,35.4
182.749,38.2
182.7608,37.3
182.7894,44.9
182.8254,49.7
182.896,35.7
182.9233,235.6
182.9314,12287
182.9547,403.3
182.9774,79
182.9885,43.8
183.0252,581.3
183.0275,129
183.0331,5169.4
183.0664,2705.9
183.0776,1246
183.1027,2207.8
183.114,372.6
183.1442,36.5
183.1976,50.8
183.2295,27.3
183.3841,48.5
183.3961,45.5
183.3999,72.3
183.4486,53.5
183.4584,60.5
183.5984,38.1
183.6572,46.3
183.7327,39.7
183.7627,57.5
183.8339,46.4
183.8516,29
183.8616,51.4
183.8837,41.1
183.9991,59.5
184.0377,35.6
184.0616,1894.8
184.0925,36.8
184.098,3421.2
184.1345,66.7
184.1409,46.7
184.1948,47.1
184.1982,55.3
184.3067,33.3
184.3201,39.8
184.3409,42.8
184.3796,47.8
184.3992,74.2
184.4646,50.1
184.4783,37.9
184.5517,73.8
184.5715,42.9
184.6759,48.9
184.6974,49.9
184.7002,68.7
184.7442,32.9
184.7607,38.7
184.7848,35
184.7934,43
184.8047,20.6
184.8191,36
184.9292,117.5
184.95,3841.8
184.968,1911.6
185.0359,37.1
185.0432,78.3
185.0456,816.2
185.0569,240.6
185.0595,60.4
185.0706,54.4
185.082,6070.4
185.0932,1620.4
185.1018,62.5
185.1184,1332.4
185.1299,57
185.1547,204.1
185.247,44.8
185.3585,43.4
185.3837,44.2
185.4042,34.8
185.5717,22.4
185.6301,36.5
185.6678,54
185.8306,37
185.8772,38.9
185.8814,47
185.9495,31.5
186.0021,53.7
186.0408,169.2
186.0668,36.9
186.0773,5617
186.0882,49.6
186.1136,4346.2
186.1656,47.4
186.2399,40.3
186.287,49.1
186.3553,75.9
186.4859,69.8
186.5263,40.4
186.632,72.9
186.7002,57.1
186.8553,34.6
186.9182,76.8
186.9296,82.3
186.9669,57.5
187.0008,33.9
187.0071,149.2
187.0368,32.4
187.0419,62
187.0613,5743.7
187.0658,48.4
187.0726,690.8
187.0976,7007.4
187.1089,1039.3
187.1175,45.6
187.134,1847.3
187.1374,76.3
187.1756,44.9
187.1907,45
187.2873,34.4
187.3031,69.1
187.392,75.9
187.591,58.5
187.6047,32.2
187.6169,44.8
187.669,48.9
187.6849,94.2
187.7271,50.9
187.8495,43.9
187.8609,46.8
187.9776,39.3
188.0174,31.4
188.0565,1857.3
188.068,37.1
188.0843,68.7
188.0929,6579.7
188.105,57.7
188.1292,3037.1
188.1389,25.4
188.1465,34.9
188.1544,52.9
188.2726,51.9
188.3164,61.2
188.3626,35.5
188.3949,48.7
188.4019,34.5
188.4354,36.3
188.4767,61.7
188.502,47.9
188.5551,58.9
188.564,35.4
188.652,41.2
188.7485,50.9
188.7752,40.1
188.7881,36.7
188.855,38.5
188.8695,30.9
188.9312,37.6
188.9353,403.3
188.9394,102386.7
188.9434,331.3
188.9478,28.9
188.9504,40
188.9651,53.2
188.9857,45.4
189.0033,39.8
189.008,397.8
189.0405,655.1
189.0574,50.5
189.0769,12377.8
189.0881,418.3
189.096,44.3
189.1133,8575.8
189.1245,120.3
189.1497,1985
189.2288,34.6
189.2907,41.4
189.4857,48.3
189.537,42.8
189.6094,38.4
189.6202,59.2
189.6684,42.3
189.7454,42.7
189.8035,37
189.8142,24.7
189.9427,939.7
189.9605,35.3
189.9858,74.2
190.0005,47
190.0146,53.4
190.0688,70.3
190.0722,3133.6
190.0803,146.1
190.1085,4536.9
190.1168,62.8
190.1449,1823.4
190.1528,49.7
190.1786,38.3
190.1967,50.3
190.3065,32.3
190.3586,40.7
190.4813,51.9
190.5695,50.9
190.669,35.7
190.6771,21.5
190.6974,54.6
190.7479,39.9
190.8576,40.5
190.9287,45.2
190.9434,101
190.9489,36.9
190.955,16593.5
190.9723,42.2
190.9755,45.5
191.0198,34.7
191.0561,4526
191.0673,56.4
191.0727,42.4
191.079,56.8
191.0925,15801.7
191.1038,154.3
191.1117,44.5
191.1289,12878.8
191.1332,48.3
191.2166,45.2
191.2241,45.7
191.3644,42.2
191.5926,30
191.7877,74.3
191.8013,33.5
191.8317,42.6
191.8897,31
191.9386,36.2
191.9502,131.7
191.958,96.5
191.9856,40.1
192.0108,58.3
192.0296,40.8
192.0474,37.8
192.0512,83.2
192.0598,34.9
192.0668,19.4
192.0878,1628.2
192.0958,398.3
192.1025,109.8
192.1247,42.9
192.1322,306.8
192.1478,43.3
192.2817,41.6
192.2922,34.8
192.3023,33
192.3714,35.3
192.4283,33.3
192.4319,39.3
192.4656,55.5
192.5315,64.8
192.6614,35.3
192.6731,23.4
192.6887,45.1
192.7593,35.4
192.8376,57.2
192.8509,49.4
192.8804,27.9
192.9026,49
192.9941,338.4
193.0298,429
193.0353,44.1
193.0366,43.3
193.0375,28.6
193.0718,6719.9
193.0871,171.1
193.1081,4930.5
193.1713,38.1
193.2821,32.4
193.4417,37.7
193.5014,33.4
193.5798,22.1
193.5888,42.6
193.6174,40.2
193.6546,35.9
193.7558,28.6
193.7741,22.5
193.8006,34.6
193.8224,106
193.866,34.7
193.8858,64.3
193.9191,43.7
194.0823,874.3
194.1093,41.9
194.1189,48.3
194.1823,44.3
194.2212,29.1
194.2339,49.6
194.2444,84.3
194.2485,52.2
194.2507,39
194.2689,89.3
194.2742,46.7
194.3349,81.6
194.3579,33.4
194.4135,18.6
194.4499,33.5
194.5058,51.4
194.595,41.7
194.6645,55.7
194.697,66.2
194.7,40.7
194.8929,36.2
194.9059,11494.6
194.9098,33.7
194.9369,2425.8
194.9399,14776.6
194.9523,40.6
194.9887,333.2
195.0257,35.9
195.0665,351.4
195.0776,579
195.0874,664.3
195.0937,32.6
195.1028,342.4
195.1081,47.6
195.1217,45.2
195.1399,17.5
195.1631,36.4
195.1734,36.7
195.2857,38.9
195.2946,54.3
195.3101,29.9
195.3452,83.6
195.3507,58.9
195.3546,53.8
195.3638,35.6
195.3657,32.1
195.4177,42.1
195.5075,46
195.5619,46
195.5837,54.3
195.6059,60.1
195.6165,36.1
195.6427,87.2
195.6524,38.2
195.6805,47.5
195.7522,48.2
195.7855,78.3
195.8238,47.1
195.8679,41.1
195.871,39.8
195.9061,328
195.9395,384
195.9444,45.9
195.9704,31.3
196.0616,524.2
196.0807,43
196.0979,2556.2
196.1187,36.7
196.1508,34.8
196.1707,18659
196.1741,35.9
196.2661,29.3
196.2818,42.9
196.3157,57.6
196.3309,62.8
196.3517,56.7
196.3631,51.5
196.383,36.3
196.6509,81.8
196.6732,71.3
196.7865,43
196.8058,80.6
196.8108,72.7
196.8284,37
196.8739,31
196.8974,37
196.9001,83.2
196.9308,33.6
196.9366,82.9
196.947,1291.8
196.9779,37.3
196.9943,498.9
197.0074,22.8
197.0296,38.6
197.043,70.6
197.0529,42.7
197.0568,42.9
197.082,2536.1
197.0932,1133.1
197.1158,58.7
197.1184,499.1
197.129,40.1
197.1547,88.8
197.1608,55.8
197.1741,1299.1
197.2363,45.9
197.2679,27.6
197.2783,29.7
197.286,41.8
197.3834,63.1
197.4543,78
197.4745,17.2
197.5585,49.6
197.5629,47
197.5713,41.6
197.5753,47.6
197.6116,36
197.7055,30.8
197.7312,35.9
197.7493,45.2
197.8261,53.1
197.8928,19.4
198.0594,1659.9
198.0772,3447.3
198.0888,35
198.1136,2405
198.1425,52.7
198.4684,36.7
198.4907,29.8
198.561,48.2
198.6651,78.2
198.7032,36.9
198.8168,46.7
198.8665,28.1
198.871,20.9
198.8756,38.9
198.8923,24.2
198.9046,125.6
198.9208,38.2
198.9391,33.3
198.9544,151
199.0021,529.5
199.0191,42.1
199.0251,86.3
199.0379,70.9
199.0612,2167.9
199.0725,790
199.0805,136.5
199.0924,64.7
199.0976,3896.8
199.1088,1778
199.1242,47.5
199.1339,509.1
199.1429,63.1
199.1667,43.4
199.1703,1550.1
199.2179,16.9
199.2551,43.6
199.3409,60
199.3831,91
199.4011,45.4
199.4409,52.6
199.5429,32.9
199.6265,48.3
199.6347,59.1
199.6707,63.5
199.7006,47.2
199.8143,54.1
199.8222,32.3
199.8567,104.5
199.9077,79.8
199.9168,45.8
199.942,63.8
199.9573,1786.3
199.993,53.6
200.0095,34.3
200.0361,67.8
200.0391,103.3
200.0565,1096.4
200.0609,49.4
200.078,33.3
200.0849,17.9
200.0929,5367.9
200.0974,47.2
200.1012,45.8
200.1293,1402.6
200.1355,19.1
200.3108,31.5
200.4351,24.8
200.4564,34.4
200.4741,37.4
200.5246,46.4
200.5802,41.7
200.663,46
200.667,41.8
200.6892,46.3
200.6907,52.2
200.6918,64.5
200.7737,33.8
200.7808,36.6
200.8069,32.6
200.8166,51
200.8175,50.7
200.8187,38.9
200.8414,50.7
200.8618,45.8
200.8945,83.5
200.924,527
200.9449,24273.7
200.9499,40.8
200.9652,400.6
201.0405,97.2
201.0522,35.4
201.057,18.8
201.0768,5549.6
201.0844,56.7
201.088,1808.4
201.0959,80
201.1132,3948.9
201.1244,574.2
201.1496,143.1
201.1835,33.8
201.196,50.9
201.1991,34.3
201.2409,58.2
201.6377,34.3
201.6474,90.2
201.8721,38.6
201.9012,42.3
201.9115,39.3
201.9441,112.8
202.0519,28.7
202.0721,3485.6
202.0807,33.2
202.0832,55.1
202.1041,35.6
202.1085,6391.2
202.1449,1038
202.1833,46.5
202.2355,61.6
202.2673,49.6
202.2801,38.1
202.3447,37.2
202.3527,43.1
202.3634,2658
202.3961,41.2
202.469,65.8
202.4773,37.4
202.514,50.9
202.6184,53.8
202.6691,39.1
202.7561,33.8
202.7692,47.4
202.7998,56.6
202.804,59.3
202.8451,43.7
202.9219,45.9
202.9483,61.3
203.0561,2494.5
203.0675,189.1
203.0756,50.7
203.0824,22
203.0925,11267.9
203.1037,940.9
203.1117,64.7
203.1246,48.4
203.1289,4625.5
203.1401,46.5
203.1493,59.5
203.3339,53.5
203.348,55
203.376,41
203.4976,38.3
203.6321,40.5
203.6473,38.7
203.6884,74.9
203.6924,31.1
203.7203,33.6
203.7237,76.5
203.7478,78.9
203.8102,40.6
203.9284,43.9
203.9451,40.9
203.9852,48.4
204,62.9
204.0373,49.5
204.0513,443.1
204.0602,46.9
204.0877,5126.2
204.0957,70.7
204.1241,4247.3
204.1605,1472.8
204.1764,40
204.2381,56.5
204.3201,55.4
204.3877,80.4
204.425,35.1
204.5698,37.8
204.6015,42.4
204.6112,34.3
204.6405,32.1
204.6686,54.6
204.6897,22.2
204.7617,37.5
204.8046,28.9
204.8643,41.6
204.9133,24805.5
204.9176,85.3
204.9423,65.9
205.007,716.3
205.015,634.7
205.0352,36.4
205.0372,29.4
205.0611,46.6
205.0718,7603.6
205.083,151.2
205.0985,77
205.1081,13554.1
205.1201,121.5
205.1276,127.6
205.1446,3962.2
205.1549,32.4
205.1598,24290.6
205.1705,41
205.1865,17
205.2104,34.3
205.2473,65.4
205.2955,50.9
205.5257,47.9
205.5903,32.7
205.6809,52.3
205.6988,31.6
205.7422,39.2
205.8396,32.5
205.8438,48.8
205.8509,46
205.8705,57.5
205.8793,42.1
205.8948,37.3
205.9166,54.4
205.9557,39.5
206.0464,34.4
206.067,244.7
206.0746,131.1
206.0825,45.5
206.0858,46.6
206.1034,3357.4
206.1115,405.9
206.1168,45.7
206.1398,1003.4
206.148,53
206.1632,2294.9
206.2045,47.5
206.227,29.3
206.26,46.5
206.3005,34.9
206.3415,28
206.3837,30.9
206.4031,38.3
206.4918,55.2
206.5225,41.7
206.5789,47.5
206.615,38.8
206.6249,17.7
206.6506,69.5
206.6754,87.4
206.7148,32.2
206.78,41.5
206.7984,74.1
206.8466,47.6
206.8648,38.8
206.9114,797.5
206.9289,3485.5
206.9727,720.2
206.989,29.7
207.051,959.8
207.0747,37.1
207.0779,82
207.0874,8975.6
207.1238,8976.8
207.1323,43
207.1608,37.3
207.1659,45
207.242,71.9
207.2663,45.4
207.4436,34.3
207.4668,31
207.5429,36.1
207.5864,54.9
207.7376,32.1
207.7476,68.4
207.8336,31.3
207.8523,65.8
207.962,68
208.0165,39.2
208.062,41.1
208.0828,57.9
208.0909,43.8
208.098,546.7
208.1188,57.4
208.1344,35.2
208.1458,40.2
208.1894,31.3
208.2019,54.7
208.2131,33.4
208.2251,72.5
208.2552,40.8
208.3538,25
208.3801,38.1
208.4386,38.4
208.6445,51.5
208.7153,48.5
208.7298,75.6
208.9047,172.3
208.9211,619.5
208.9269,31.8
208.9346,576.8
209.0045,357.8
209.0195,47.2
209.0532,32.4
209.0624,30.6
209.0667,1990.8
209.082,447.4
209.0932,401
209.1031,718.4
209.1184,132.3
209.3022,37.8
209.3526,17.4
209.4213,23.3
209.4592,37.4
209.4634,48.8
209.4944,68.4
209.5369,37.5
209.573,33.4
209.6051,60.1
209.6138,44.7
209.6233,43.5
209.6286,73.4
209.6855,48.5
209.7587,37.7
209.8098,25.3
209.8254,40.1
209.8713,34.9
209.8847,48.3
209.9091,45.1
209.9179,54.6
209.921,64.6
210.0507,51.9
210.0595,7540.6
210.0701,74.9
210.0771,1043
210.0891,30.4
210.0995,50.9
210.1136,1177.7
210.1245,77.8
210.1488,48.2
210.2697,47.4
210.3668,41
210.4164,41
210.4463,21.1
210.4648,60.4
210.4783,39.9
210.5288,24.7
210.57,39.9
210.6087,74.8
210.6995,48.6
210.7381,41.8
210.7454,44.6
210.7623,33.6
210.7877,21.1
210.8204,45.8
210.8331,52.4
210.8481,79.9
210.8762,37.9
210.9138,2624.5
210.9185,115.4
210.9368,117.8
210.9494,133.3
211.0446,270.6
211.0476,170.5
211.0512,263.8
211.058,1057.6
211.0681,6316.9
211.0715,5577.4
211.0743,3682.5
211.078,1960
211.0909,34.8
211.0975,1788.9
211.1088,970.5
211.1338,573.6
211.1882,18.2
211.1973,39.1
211.2158,36.6
211.2842,64.4
211.3204,46.4
211.3942,63.6
211.4123,50.3
211.7517,19.9
211.7659,1381
211.7927,51.9
211.8173,41.9
211.8512,4393.2
211.9407,16246.3
211.9719,2138.1
212.0097,48.6
212.0158,40.4
212.0254,84.9
212.0303,16919.4
212.0348,125.5
212.0404,238.4
212.0455,283.4
212.0462,240
212.0477,322.2
212.0488,382.9
212.0499,358.7
212.0524,1225.1
212.0547,3091.6
212.0569,1671.5
212.0603,9519.1
212.0653,18146.9
212.0702,73415.8
212.0799,73370.3
212.0847,16350
212.0899,8432.2
212.092,5083.8
212.0945,2560.6
212.0963,1958.4
212.1002,396.2
212.1038,502.5
212.11,757.9
212.1153,490.3
212.1199,17511.3
212.1243,41.9
212.1288,647
212.1398,55.8
212.1594,85
212.1783,1919.8
212.2096,14183.6
212.2993,2731.3
212.326,31.8
212.3361,82
212.3848,333.3
212.4052,51.9
212.5238,54.6
212.6241,21.4
212.7107,60.8
212.7684,40.4
212.9208,51
212.9431,579.5
212.9737,39.7
212.9791,48.7
212.9802,55.6
213.0332,849.2
213.0491,103.1
213.0585,58.8
213.0614,39.2
213.0635,53.3
213.0688,955.6
213.0742,23997.1
213.0835,4554.1
213.0878,2007.4
213.093,39.8
213.1131,2174.2
213.1239,1235.5
213.1497,81.4
213.1857,200.6
213.2137,509.2
213.2247,59.9
213.2952,36.2
213.4252,34.1
213.4882,48.5
213.4922,76.1
213.598,22.5
213.6733,33.5
213.7866,37.8
213.7912,74.6
213.9339,57.3
213.9514,28.2
214.0231,34.3
214.0248,31.1
214.0587,32.4
214.0594,32.9
214.0658,1686.2
214.0762,1817.8
214.0817,658.7
214.0844,62.2
214.1165,44.1
214.1198,43.1
214.1448,608.4
214.2125,53.3
214.2947,36.3
214.3124,35.3
214.3271,35
214.4619,20.3
214.6369,49.1
214.7825,33.7
214.8074,36.4
214.8893,71.5
214.9597,24.5
214.9953,32.5
214.9995,109.9
215.0046,61196.8
215.0172,225.3
215.0328,265.1
215.0559,637.5
215.0672,1139.5
215.074,15692.7
215.0825,372.5
215.0923,5514.4
215.1036,1408.7
215.1287,2799.1
215.14,196.6
215.3073,44.9
215.3258,55.7
215.3776,59.3
215.4481,34.4
215.4716,49.6
215.5695,47
215.8559,54.4
215.8876,59.6
215.9593,80.4
216.0042,5212.5
216.008,611.8
216.0513,222.4
216.0765,84
216.0875,4830.8
216.0948,77.3
216.1028,47.6
216.1239,6908
216.1346,28.9
216.1424,68.7
216.1604,46.3
216.2422,53.2
216.2643,47.3
216.3383,40.8
216.3489,58
216.4988,36
216.5306,39.2
216.5432,54.2
216.6991,32.1
216.8213,41.7
216.8507,69.3
216.8667,35.6
216.9016,50.4
216.9074,41.8
216.9186,6379.4
216.9673,50.4
216.9706,26.8
217.0015,2887.8
217.0085,142.5
217.0298,44.5
217.0316,40.1
217.0716,4285.3
217.083,417.1
217.0908,36.3
217.1079,7585.4
217.1191,1404.6
217.1276,38.3
217.1444,2918.3
217.2044,47.4
217.2764,30.9
217.2891,49.8
217.2955,30.1
217.3319,41.3
217.3458,38.8
217.3489,78
217.3552,92
217.4577,67.2
217.5132,34.9
217.6991,55.5
217.7544,59
217.7828,34.1
218.0163,72
218.0668,1069.2
218.0779,75.9
218.1032,6002.1
218.1116,38.6
218.1146,89.3
218.1232,39.6
218.1395,2724.2
218.4192,59.4
218.4345,68.5
218.599,51
218.7278,41.1
218.8678,83.6
218.9253,39.9
218.9498,4795.1
218.9633,789.6
218.9703,238.1
218.9859,28.5
219.0042,68.6
219.0509,299.7
219.0668,2754.4
219.0872,9235.6
219.0986,304.9
219.1236,7688.1
219.1349,101.6
219.16,2925.1
219.1747,48.2
219.2321,44.6
219.2437,61.8
219.2799,38
219.3301,72.9
219.5031,72.6
219.5084,60.9
219.6384,43.2
219.6688,37.1
219.6807,48.6
219.6958,45.1
219.7711,67
219.7849,71.7
219.7929,36.4
219.9452,22.7
219.9537,27.5
219.9599,44
219.99,50.6
220.058,67.3
220.0701,31.6
220.0825,1515.8
220.0905,139.6
220.0978,19.7
220.1188,3802.3
220.1271,182.1
220.1552,724.2
220.2461,69.5
220.3205,40.4
220.5963,61
220.6475,34.8
220.6972,41.7
220.718,55.5
220.7987,52
220.8871,959.8
220.9364,87.5
220.9654,2392.1
220.9735,53.5
221.0097,3013.6
221.0247,187.4
221.0664,1146
221.0803,48
221.0935,51.9
221.1029,10546.1
221.1145,49.2
221.1178,39.7
221.1218,44.6
221.1304,87.9
221.1393,5937.1
221.1787,38.4
221.3858,51
221.4544,42.9
221.553,46.1
221.7081,33.8
221.9923,87.1
222.0619,30.9
222.0771,153.6
222.0928,35.4
222.0981,235.8
222.1024,26.4
222.1061,241.6
222.1135,123.7
222.1347,112.7
222.235,74.2
222.4063,54.1
222.411,34.8
222.4782,77.8
222.7619,43.3
222.7886,32.1
222.8976,39.2
222.9027,110.1
222.9149,121.4
222.9267,6181.7
222.9468,42.7
222.9835,24.8
223.0091,37
223.0298,38.8
223.0821,785.7
223.0972,176.5
223.1056,29.2
223.1088,264.3
223.1185,3101.1
223.1328,53.4
223.143,59.3
223.3569,34.1
223.4087,38
223.4485,33.1
223.4574,32.8
223.5774,35.8
224.0384,35.9
224.0926,1410.6
224.1038,143.7
224.1215,47.7
224.1289,332.2
224.1505,86.4
224.313,42.9
224.3868,76.7
224.5494,38
224.5728,48
224.6185,49.2
224.7277,45.7
224.7511,103.3
224.8126,41.9
224.8603,70.3
224.8718,50.8
224.8824,70.9
224.8949,188
224.9041,46.9
224.9166,159.8
224.9697,59
224.9993,223
225.0614,1083.3
225.0768,394.1
225.0879,355.7
225.113,633.3
225.1245,738.8
225.1494,105
225.1861,53.4
225.2212,33.4
225.2627,34.8
225.366,55.3
225.421,67.6
225.7022,62.2
225.7668,76.9
225.9406,47.9
225.9436,42.7
226.0084,21.5
226.0421,141.8
226.0542,7896.9
226.0719,630.5
226.0833,80.6
226.1083,2210.4
226.1198,39.8
226.1447,645.5
226.3468,38.7
226.3771,40.3
226.4382,48.4
226.5327,31.3
226.5682,68.8
226.5896,62.8
226.7049,62.9
226.7257,49.3
226.8848,38
226.8917,59.6
226.9658,83.2
227.058,168.2
227.0677,40.7
227.0824,84.4
227.0837,71.4
227.0924,2615.9
227.1036,1681.5
227.1116,54.5
227.1287,1117.6
227.1399,572.9
227.1548,38.4
227.1578,48.2
227.1652,26.9
227.1932,19
227.2015,6277.8
227.2703,16.3
227.3553,41.3
227.4005,43.2
227.4069,39.1
227.479,28.3
227.5011,66.7
227.5978,31.6
227.6451,32.5
227.6742,35.1
227.8963,42
227.9048,46.7
227.9217,67.6
227.9839,24.7
228.0047,46
228.0698,1482
228.0732,37.4
228.0875,2685.2
228.099,103.1
228.1111,38.2
228.124,3117.9
228.1389,105.2
228.1607,222.6
228.2049,25.9
228.2436,77.5
228.2541,85.4
228.3027,40.4
228.3411,40.4
228.3456,44.8
228.4571,36.1
228.5076,34.5
228.5767,60.4
228.7053,36.8
228.7644,54.6
228.7814,37
228.8861,52.5
228.9028,176.1
228.9061,66.9
228.9212,77
228.9241,86.4
228.9317,36737.9
228.9392,67.5
228.96,1080.5
228.9789,56.1
229.0715,1153.4
229.0828,450.1
229.0996,59.3
229.108,4314.9
229.1191,2158.6
229.1444,1964.3
229.1554,120.3
229.1681,1115.2
229.2155,46.5
229.2452,41
229.2656,38.5
229.4954,40.3
229.528,50.5
229.6462,41.2
229.6773,64.3
229.7372,75.7
229.7581,44.1
229.7683,71.6
229.814,36.6
229.817,54.8
229.9348,140.6
229.9699,41.3
230.0627,32.7
230.0671,160.1
230.1032,5023.3
230.1136,34.7
230.1396,3438.3
230.1794,34
230.2462,36.2
230.2876,39.4
230.3594,41.2
230.3764,32.7
230.425,20.3
230.4829,53.9
230.5744,38.4
230.6798,75.6
230.6987,66.7
230.7657,65.3
230.838,36.6
230.9001,96.7
230.918,36.6
230.9473,31.5
230.9554,319.8
230.986,1368.4
231.037,65.7
231.0872,5240.9
231.0984,1028.9
231.1065,53
231.1236,5712.9
231.1347,846.3
231.1441,48
231.1601,2109.1
231.2938,34.5
231.4204,39
231.5087,41.9
231.5982,39.2
231.6408,37
231.6814,43.8
231.7962,35
231.7992,51.7
231.9604,52.4
232.0824,2181.3
232.0942,35.3
232.1188,5305.4
232.1272,57.5
232.1382,49
232.1553,2096.7
232.2017,53.7
232.2247,44.1
232.3119,34.9
232.3455,30.9
232.4242,36.7
232.4597,45.2
232.473,40
232.4924,43.6
232.5553,35.1
232.7662,45.8
232.8176,55.5
232.9144,98.4
232.9245,10320.4
232.9369,443.8
232.9439,29.2
233.0017,940.9
233.0665,1234.9
233.0809,48.8
233.0862,43.9
233.1029,8514.2
233.1098,67.8
233.1142,553
233.1226,45.1
233.1393,5399.7
233.1502,88.5
233.1547,23.1
233.1756,2879.1
233.2339,30.3
233.2487,32.5
233.2499,39.1
233.2514,45.8
233.2772,34.3
233.3421,32.3
233.3434,32.8
233.3791,41.5
233.3832,75.7
233.5813,44.5
233.6805,41.2
233.728,40.6
233.8125,63.7
233.9242,356.7
233.9547,36.2
233.9797,39.6
234.0617,42.8
234.0982,2390.6
234.1063,119.2
234.1345,3327.6
234.1428,87.7
234.171,132.1
234.2901,23.2
234.5664,44.6
234.594,67.2
234.6411,36.1
234.7319,44.9
234.7698,36.5
234.8005,42.9
234.9236,1232.3
234.9321,4182.1
234.9362,17.2
234.9446,127.8
235.0173,149
235.0315,26.5
235.0821,3032.5
235.0938,43.8
235.1185,8999.8
235.1292,50.9
235.1549,5520.9
235.1701,58.4
235.1885,51.9
235.1936,70.9
235.2434,68.3
235.3025,68.4
235.4069,50.2
235.4734,42.6
235.5855,85.7
235.7054,54.4
235.7847,61.6
235.9115,30.2
235.9272,28.8
236.0585,54.8
236.0777,45.7
236.0923,48.4
236.1137,702.1
236.1218,251.6
236.1289,37.5
236.1498,344.4
236.2008,41
236.2484,40.1
236.267,37.9
236.2839,37.2
236.2932,49.2
236.5062,74.3
236.6967,33.9
236.9184,35.2
236.9219,21.6
236.9393,511.2
236.9517,60.7
236.9867,96.8
236.9989,37.8
237.0491,225.9
237.0666,65.3
237.0884,35.9
237.0979,1946.1
237.1126,44.4
237.1248,215.4
237.1342,3906
237.145,48.5
237.2249,43
237.2526,105.8
237.37,75.9
237.4271,25.1
237.5691,52.7
237.5883,43
237.8065,46.7
237.878,47.8
237.8849,52
237.9433,42.8
237.9617,53.9
237.9861,56.3
237.9941,37.6
237.9949,38.5
237.9969,25.6
237.9984,27.3
238.0143,54.5
238.0361,57.5
238.0725,66.7
238.1083,742.4
238.1192,44.9
238.133,61.9
238.138,110.5
238.1442,38
238.2581,42.8
238.3366,26.9
238.4081,64.5
238.5445,33.7
238.5897,68
238.6477,31.2
238.9005,2876.3
238.9315,1887.2
239.0177,36.4
239.0563,101.4
239.0583,73.4
239.0673,21.7
239.0803,40.2
239.0923,316.1
239.0949,69.7
239.0967,42.2
239.1034,400.2
239.1287,763.4
239.1397,69.5
239.189,37.1
239.1965,79.1
239.3073,41.7
239.3634,28.6
239.4271,36.1
239.4991,59.4
239.6015,41.6
239.7489,39.3
239.7582,42.8
239.7753,49.1
239.944,68.3
240.0875,882.1
240.0974,32.6
240.124,1564.4
240.1423,16.8
240.1501,44.7
240.379,51.6
240.3904,37.6
240.7206,37.3
240.8687,36.2
240.9286,483
240.935,35.5
240.9451,2447.1
240.9947,33.8
241.0634,41.9
241.0713,163.3
241.083,108.1
241.0971,34.7
241.1079,1771.9
241.1191,1554
241.1443,436.3
241.1555,45.2
241.1614,66.1
241.1809,112.4
241.2171,2158.4
241.2255,32
241.2297,53.3
241.325,30
241.3403,32.5
241.4025,47.3
241.4478,35.5
241.4585,35.7
241.5674,75.7
241.6036,37.5
241.8301,28.1
241.9432,69.9
242.0666,106.9
242.0776,62.9
242.0954,19.4
242.1032,2855.3
242.1121,43.9
242.1268,67.3
242.1395,2226.9
242.15,33.8
242.1594,56.4
242.1767,69.8
242.2461,62.4
242.3032,40.3
242.4114,39.5
242.6463,62.4
242.6945,33.4
242.7085,46.8
242.8204,42.5
242.8459,42.2
242.9433,1605.7
243.0122,184.3
243.0476,44.7
243.0644,61.6
243.0713,61.8
243.0872,1928.2
243.0983,1111.9
243.1133,36.9
243.1236,3268.6
243.1349,1099.2
243.1421,44.7
243.1595,156.4
243.1714,40.2
243.2516,43.4
243.3536,69.7
243.3776,63.1
243.3866,45.2
243.4452,44.5
243.4928,55.1
243.5172,41
243.566,44
243.6247,40.2
243.6368,43.6
243.7043,55.8
243.9468,56.8
243.9698,42.4
243.9944,30.6
244.0721,38.8
244.0824,1446
244.0938,44.5
244.1189,4480.6
244.1289,71.6
244.1552,1531.6
244.1628,58.5
244.29,85.1
244.3258,40
244.5113,50.5
244.7701,41
244.8694,56.7
244.8835,44
244.8979,40.1
244.9055,9292
244.9132,25.3
244.9345,2364.1
244.9851,370.3
245.0014,43.8
245.0421,35.6
245.0661,372.9
245.1029,5094.7
245.1141,1551.4
245.1226,42.8
245.1392,4028.7
245.1506,147.1
245.1673,34.1
245.1757,54.8
245.3693,38.2
245.4015,39.1
245.42,61.1
245.4238,28.4
245.4444,36.7
245.5804,35.4
245.6507,37.6
245.7399,34.9
245.7455,37.7
245.7677,56.9
245.9233,34.3
245.9682,62.5
246.0636,36.4
246.0818,46.7
246.0981,2726.2
246.1071,74.3
246.109,52.8
246.1345,4331.6
246.1453,55.3
246.1708,854.9
246.2347,35.2
246.239,50.2
246.3462,46
246.4392,48.9
246.4748,40.7
246.5835,72.6
246.5904,99.7
246.8427,32.4
246.8977,1398.8
246.9035,53
246.9294,38.1
246.9373,35.9
246.9495,39.5
246.9609,20.1
246.9653,48.8
246.9809,33.1
247.0299,55.7
247.0435,20.6
247.0656,52.6
247.0763,53
247.0821,2454.5
247.0933,357.8
247.1016,76.4
247.1185,7091.2
247.1298,1147.1
247.1436,56.7
247.1548,3800.5
247.1595,52.1
247.191,256.9
247.2107,35.7
247.2364,43.3
247.2994,68.6
247.3284,42.2
247.4844,58.5
247.6627,73.5
247.783,51.2
248.0777,101.6
248.1138,3166.1
248.1245,57.8
248.1258,52.4
248.1501,2571.4
248.1582,71.2
248.1864,129.4
248.2258,50.4
248.5567,34.3
248.5821,45.9
248.6279,44.1
248.6972,50.1
248.7721,38.7
248.8839,19.2
248.8946,93.5
248.8987,69
248.9036,70.6
248.9134,366.1
248.9182,37.6
248.9287,39.7
248.9393,41.8
248.9467,53.6
248.9543,54.3
248.9604,16587.1
248.9755,248.1
249.0181,69.5
249.0978,3529.8
249.1092,78.3
249.1342,6119.6
249.1534,69.9
249.1705,5170.7
249.2713,54.5
249.2928,58.1
249.4449,37.1
249.6552,40.6
249.7449,40.9
249.8267,38.5
249.85,70.7
249.8706,60.1
249.9099,52.1
249.9433,31.1
249.9478,75.3
249.9554,89
249.9636,596.9
249.9844,31.7
250.0927,40.8
250.1094,70.2
250.1294,1361.1
250.138,46.6
250.1448,151.7
250.1508,73.9
250.1658,535.3
250.1743,59.2
250.2914,67.5
250.4554,49.7
250.5089,20.2
250.545,71.5
250.7201,46.9
250.8369,30.2
250.8489,35.5
250.8699,46.3
250.8795,70.8
250.8973,94.4
250.906,93.5
250.9104,40.9
250.9186,205.8
250.9396,1124.1
250.9475,4598.6
250.9643,193.4
250.9903,46.8
251.0673,40.7
251.0766,37.3
251.1133,2454.2
251.1244,42.3
251.1406,117.4
251.1497,2685.9
251.1651,675.4
251.2167,26.8
251.2626,50.5
251.3098,54
251.7281,40.1
251.7361,73.8
252.0675,125.5
252.0794,71
252.0878,42.8
252.1239,323.9
252.1443,42.1
252.3039,35.8
252.3578,69.1
252.4342,45.6
252.4527,60.3
252.7353,46.3
252.801,48.1
252.9135,27.4
252.9311,39.8
252.9368,41.3
252.9568,44.7
252.9616,42.5
253.0157,80.6
253.0232,23.1
253.0601,56
253.0842,69.2
253.0928,30.3
253.1027,50.3
253.1079,197.8
253.1191,544.3
253.1435,30.3
253.155,87.5
253.2171,3298.2
253.3199,89.6
253.3907,38.9
253.4194,38.5
253.4614,37.5
253.471,34.9
253.4982,34.5
253.6228,40.5
253.6949,46.7
253.7024,50.8
253.8348,17.6
253.9271,53
254.0545,37.9
254.103,875
254.1395,637.1
254.1512,40
254.1755,46.8
254.2136,36.5
254.2202,66
254.31,69.5
254.353,35.8
254.4485,48.4
254.5134,37.8
254.5307,19.5
254.6252,48.4
254.6746,40.4
254.7479,43.9
254.7565,27.7
254.8271,21
254.9008,45.9
254.9062,1540.2
254.9189,580.9
254.9266,26.5
254.967,31.2
254.9898,52.3
254.9945,52.3
255.0406,34.4
255.0871,507.4
255.0915,43.8
255.0981,337.9
255.1186,40.7
255.1236,1012.8
255.1347,670.5
255.1882,47.8
255.1957,21.1
255.2327,44292.7
255.2642,42.6
255.3564,48.8
255.3839,19.2
255.4812,51.4
255.5226,39.2
255.5491,56.3
255.6305,23.8
255.6935,42
255.7669,32.2
255.8339,36.9
255.8355,37.6
255.9552,44.4
255.9881,38.3
256.0148,31.7
256.0307,28.9
256.0576,47.3
256.0824,303.4
256.1189,2536.2
256.13,100.2
256.1553,688
256.236,7302.3
256.3089,29.4
256.3651,57.4
256.4557,72.4
256.4938,46.2
256.625,46.4
256.6537,33.6
256.777,32.1
256.8272,41.1
256.8456,48.3
256.8698,44.9
256.9025,84.9
256.9192,127.6
256.9265,13096.1
256.9549,409.4
256.9948,40
257.0516,9881.2
257.0771,33
257.1029,1850.8
257.114,1549.2
257.1289,35.6
257.1392,1643.8
257.1504,709.1
257.1757,45.1
257.2001,45.2
257.2391,26.6
257.3469,39.5
257.5458,63.6
257.5818,41.1
257.6045,64.8
257.6743,20.1
257.7105,57.5
257.7257,69.4
257.8698,47.7
257.8996,31.3
257.9211,98.9
257.9299,50.8
258.0512,172.1
258.0802,7828.2
258.098,1744.6
258.1086,140.3
258.1166,30.7
258.1345,3768.5
258.1451,224.8
258.1707,449.2
258.2134,50
258.3739,44.2
258.4304,45.9
258.5291,30.2
258.6584,54.9
258.7388,51.9
258.7569,44.7
258.8719,21.2
258.9063,45.9
258.9123,37.6
258.9209,508.9
258.9422,2460.6
259.0823,381.3
259.0935,314.2
259.1015,28.7
259.1184,4493.3
259.1297,1417.4
259.1418,54.2
259.155,1346.4
259.1657,161.9
259.2291,47
259.3648,31.6
259.3967,46.9
259.4011,54.3
259.4084,62.6
259.4131,40.5
259.4414,35.8
259.4462,35.9
259.5608,52.5
259.5883,33.8
259.7638,32.4
259.8571,33.2
259.902,72.9
259.9372,24.3
259.9874,19.3
260.0778,129.9
260.1137,3212.9
260.1238,231.3
260.1502,2828.6
260.1585,34
260.1867,305.9
260.1974,47.8
260.3244,17.5
260.3285,59.1
260.344,36.2
260.4631,29.8
260.5676,49
260.7398,19.6
260.7683,32.2
260.8797,236.3
260.8966,44.4
260.9085,249.8
260.9316,70.4
260.9577,113.8
261.0103,224
261.0284,37.2
261.0453,56.7
261.0524,35.8
261.0977,2815.5
261.1091,468.5
261.122,38.6
261.1341,5237.8
261.1455,557.2
261.1626,67.2
261.1705,1337.3
261.2223,126.8
261.2465,32.7
261.2706,22.3
261.2964,41.6
261.3268,39.8
261.4841,65
261.9029,37.1
261.9877,41.6
262.0022,54.7
262.0812,59.1
262.093,303.1
262.1021,44.5
262.1293,3277.7
262.1492,45.5
262.1658,1792.4
262.2048,87.3
262.3895,41.4
262.5218,47.2
262.5373,21.2
262.5813,20.3
262.7517,32.1
262.8715,155.6
262.8799,39.4
262.9188,141.5
262.9272,546.5
262.9759,70.8
263.0126,21.5
263.0504,42.2
263.0773,115.8
263.1133,4343.4
263.1205,34.4
263.1249,565.4
263.1498,4637.6
263.1546,72.6
263.1689,66.2
263.1861,978.7
263.2454,78.8
263.5031,36.3
263.547,51.7
263.6254,81
263.7452,46.6
263.7854,21.2
263.9301,74.8
263.9527,44.7
264.0035,47.6
264.0823,40.3
264.1086,356.3
264.113,42.6
264.1376,33.9
264.145,2128.2
264.152,48.9
264.1605,36.5
264.1812,180.1
264.2496,40.5
264.3615,34.8
264.4403,65.1
264.4903,19
264.5529,51.5
264.5864,33.8
264.6161,41.3
264.8875,134.7
264.9079,36.6
264.9341,2603.9
264.9618,80
265.0023,30.8
265.0488,24.6
265.0599,68.2
265.0929,175.9
265.1187,154.5
265.129,2950.4
265.1438,32
265.1494,62.7
265.1654,2708.6
265.3244,53
265.4191,37
265.6751,42.5
265.7311,20
265.9702,38.4
266.0667,107.2
266.086,91.7
266.1031,108.9
266.1144,58
266.1396,223.5
266.1603,258.6
266.2426,41
266.2517,87.6
266.3483,62
266.4519,32.9
266.482,21.1
266.6016,55.6
266.7099,44.3
266.7166,42
266.762,54
266.8562,36.1
266.8849,76.7
266.8926,23.1
266.9134,1522
266.9322,127.4
266.9387,50.1
266.9518,97
267.0251,55.7
267.0987,233.5
267.1086,80.1
267.1233,130.4
267.1349,382.6
267.1449,351.8
267.1811,37.9
267.2322,26.2
267.2757,33.9
267.3127,32.5
267.3344,20.5
267.4988,58.7
267.5327,33.8
267.5906,46.5
267.6032,43.1
267.6275,89.7
267.6658,34.9
267.6713,21.7
267.8163,29.1
267.9302,25.5
268.1187,861.9
268.1297,203.1
268.1419,76.5
268.1553,225.5
268.2027,30.9
268.279,34.5
268.3428,63.5
268.3869,38.6
268.5118,47.1
268.5163,43.6
268.7393,38.2
268.9294,53
268.9314,62.6
268.9524,50.5
268.9752,31.4
268.9807,46.8
269.0146,51.3
269.1032,271.8
269.1138,285.9
269.1392,247.6
269.1506,196.4
269.1597,34.8
269.212,881.2
269.2484,610.7
269.4681,46.3
269.4775,76.4
269.7706,73.3
270.0502,46.3
270.098,745.3
270.1088,41
270.1344,1863.2
270.1455,33.4
270.1711,98.8
270.2035,28.7
270.2151,98.7
270.2675,65.6
270.2956,102.5
270.3294,64.7
270.4211,42.7
270.5282,40.4
270.8807,50.8
270.9787,152.9
271.0067,101.9
271.0196,139.9
271.0823,65
271.0931,78.5
271.1184,1691.4
271.1297,1316
271.1547,441.1
271.166,264.5
271.2276,620.8
271.2648,26.8
271.3764,65.5
271.5575,61.7
271.7037,76.4
271.7127,43.9
271.839,29.5
271.8519,31
271.8714,38.3
272.0027,58.9
272.0237,39.3
272.0778,52.7
272.1137,2388.2
272.1242,81.3
272.1501,2596.2
272.1613,118.6
272.2932,34
272.3106,38.4
272.3321,79.8
272.378,48.1
272.4495,32.3
272.472,67.2
272.6086,38.6
272.6821,36.2
272.6947,30.7
272.712,34.6
272.8052,59.2
272.8829,2400.6
272.8922,47.7
272.9004,4193.4
272.9214,18542.2
272.9519,60
272.9942,40.9
273.072,38
273.0977,1042.7
273.1089,541.5
273.12,67.6
273.134,3024.3
273.1453,950
273.1704,276.8
273.3315,54.1
273.728,46.9
273.8397,46.5
273.9171,71.3
273.9447,35.1
274.0273,42.8
274.093,604.5
274.1177,48.9
274.1293,2937.3
274.1396,135.5
274.1657,2078.3
274.2794,59.5
274.3393,60.3
274.4406,72.1
274.7528,50.5
274.8989,57
274.916,794.6
274.9288,19.9
274.9475,75.5
274.9713,539.5
274.9836,32.1
275.0444,71
275.0885,142.5
275.1134,3265.7
275.1246,718
275.1498,3382.8
275.1609,682.3
275.1694,33.5
275.18,50.1
275.1863,735.1
275.2048,41.8
275.3112,47.9
275.3754,38
275.6349,60.1
275.6521,36
275.9153,46.8
275.9167,40
275.9348,49.7
275.97,33.6
276.0439,34.9
276.1087,1349.9
276.1163,96.5
276.145,2925.9
276.1529,136
276.1705,48.1
276.1814,615
276.2164,42.9
276.2622,36.8
276.3197,43.8
276.3665,48.8
276.4031,36.1
276.5036,51.9
276.6227,46.6
276.653,43.4
276.6969,31.8
276.8866,287.2
276.8921,22.5
276.9081,242.5
276.9139,20.9
276.9314,54.1
277.0927,453.1
277.1117,70.1
277.1159,65.7
277.129,3597.4
277.1402,317.8
277.1454,53.7
277.1654,2597
277.1917,44.1
277.2022,196.2
277.2168,22.7
277.2457,58.9
277.3272,62.9
277.3537,39.5
277.4712,71.2
277.5526,40
277.6108,34.7
277.6365,59
277.6712,39.8
277.7305,30.2
277.8754,49.2
277.9779,36.1
278.0992,40.5
278.1036,46.6
278.1243,844.1
278.1383,37.3
278.1607,1622.5
278.1969,36.5
278.3151,38.3
278.3351,48.7
278.3784,32
278.4436,35.5
278.4521,61.9
278.5536,30.9
278.7324,36.8
278.77,47.1
278.7979,37.9
278.8724,36.8
278.9011,147.6
278.9224,562.7
278.9424,454.3
278.9691,34.5
278.9858,70.6
279.0593,31.3
279.0773,70.6
279.1085,436
279.1237,75
279.1323,40
279.1446,2162.3
279.1542,45.7
279.16,90.8
279.181,1653.1
279.2327,6869.6
279.3369,73
279.3721,32.7
279.5071,39.4
279.7473,43
279.7592,61.7
279.7647,91.9
279.7707,39.7
279.7729,36
279.8525,60.1
279.855,54.3
279.8666,38.1
280.0085,42
280.062,41.9
280.0854,46.8
280.1178,46.6
280.1402,74.2
280.1434,39.8
280.1521,36.7
280.1559,36
280.1765,32.7
280.2144,67.5
280.236,736.9
280.515,32.1
280.5744,81.9
280.6521,69.9
280.6604,33.5
280.8911,40.1
280.9017,69.7
280.9082,273.5
280.9163,35.6
280.9209,39.2
280.9528,49.4
280.9827,1185.8
281.0711,33.6
281.1149,46
281.1253,43.3
281.139,48.6
281.1519,67.7
281.1605,277.6
281.2483,25142.1
281.2554,28.6
281.6477,52.6
281.6578,52.4
281.6818,19.9
281.7185,35.9
281.7456,44.2
281.8077,48
281.9639,93.6
282.0616,33
282.0657,18.2
282.0982,98.1
282.1345,351.8
282.145,50.7
282.1715,68.4
282.1962,85.4
282.2518,3968.5
282.5005,36.3
282.5919,63.4
282.6453,68.6
282.7291,59.4
282.7761,42.9
282.8928,733.5
282.917,34
282.9359,86.5
282.9652,42.8
282.9742,36.3
283.1182,321.8
283.1297,288.7
283.1385,49.1
283.1549,198.9
283.1662,134.7
283.2374,74.7
283.2639,14657
283.3611,41.2
283.3941,40.5
283.4537,58.3
283.4911,38.2
283.5219,37.2
283.5479,39.2
283.6383,34
283.8423,42
283.8512,31.6
284.1137,599.4
284.124,82
284.1504,1085.9
284.1616,71.5
284.2672,1913.2
284.4128,58.4
284.4375,45.5
284.4737,31.6
284.5071,37.8
284.6859,41.5
284.9088,127.5
284.9268,236.2
284.9333,35.2
285.0082,49.9
285.0477,27.3
285.097,44
285.1091,230.7
285.1341,1014.9
285.1452,421.1
285.1703,97.9
285.182,52
285.2333,61.4
285.267,43.2
285.3778,37.3
285.4237,18.8
285.6471,32.7
285.7065,28.8
285.8028,66
285.8127,47.8
285.8958,1941.5
285.9062,28.1
285.9159,77
286.0406,47
286.0929,264.9
286.1039,52.4
286.1294,2053.5
286.1402,48.8
286.1657,1039.8
286.1748,38.5
286.1868,40.9
286.2352,31.9
286.262,38.8
286.2931,39.8
286.3952,51.7
286.4004,38
286.7754,69.8
286.8817,32.7
286.8906,343.3
286.8966,34.6
286.9152,55.4
286.937,1674.4
286.9472,43.6
286.9572,105.6
287.0879,59.4
287.1133,951.8
287.1247,635.1
287.1358,62.6
287.1498,1487.6
287.1611,540.2
287.1664,38.4
287.1861,188.5
287.2077,49.1
287.3462,50.8
287.5197,37.3
287.543,47.8
287.5619,27.7
287.5984,45.1
287.6567,30.8
287.6965,55.8
287.9169,41.7
288.1086,624
288.12,54.5
288.1377,50
288.145,2585.3
288.1572,41.2
288.1813,1102.4
288.1887,59.4
288.2939,50
288.4408,37.4
288.4983,36.3
288.5548,43
288.5906,84.9
288.719,125.6
288.7243,279.8
288.7338,868.2
288.7389,883.5
288.7443,1036.2
288.7489,1114.1
288.7547,1250.9
288.7589,1875.4
288.7658,1612.8
288.7728,2307.6
288.7833,3125.3
288.789,3008.4
288.7923,3617.8
288.7965,3042
288.8014,3338.8
288.8127,2472.4
288.8171,2407.5
288.8245,1802.2
288.829,1484.4
288.835,1274.1
288.8432,706.7
288.8488,684
288.8554,501.1
288.8623,275.7
288.8746,240.9
288.8862,141.8
288.8954,7463.8
288.9266,32.9
288.9416,46.3
288.9526,1646.7
288.9754,77.4
289.037,89.9
289.0926,297
289.1291,2552.5
289.1401,852.1
289.1654,1594.5
289.1765,33.6
289.2019,195
289.3873,52.2
289.4511,46.4
289.5002,69.1
289.6481,43.8
289.828,49.8
289.8521,64.8
290.0537,32.9
290.0984,47.7
290.1022,36.3
290.1039,34.7
290.1242,1485.7
290.131,33.8
290.1606,1920.7
290.167,61
290.1973,174.7
290.2485,77.1
290.2748,51.7
290.4468,37.1
290.5405,51.1
290.6195,77.1
290.7258,36.8
290.8901,82.9
290.8913,80.3
290.8931,81
290.914,47.6
290.9346,55
290.9909,99.3
291.0273,32.7
291.0696,29
291.0831,8749.7
291.1089,314.1
291.1201,217.4
291.1252,78.9
291.1446,2775.4
291.1557,227.1
291.181,1348.2
291.2162,212.1
291.2371,43.7
291.3976,56.8
291.4063,28.9
291.4558,39.1
291.5201,45.2
291.6274,49.7
291.6346,32
291.8518,43.3
291.9065,48.6
292.0762,73
292.0863,146.2
292.1032,38.8
292.1109,60.3
292.14,944.7
292.1538,34.9
292.1619,31.3
292.1764,904.2
292.2375,33
292.363,46.9
292.465,64.9
292.6433,37.8
292.863,32.1
292.8699,35.2
292.8821,40.7
292.8912,1446.3
292.9866,142.2
292.9942,173.3
293.0361,48.4
293.0679,79.6
293.0955,41.9
293.1237,474.3
293.1502,51.3
293.1604,1951.9
293.1756,463.8
293.1968,834.4
293.2801,33.4
293.3303,47.4
293.3887,52.1
293.443,63
293.4893,41.8
293.6916,46
293.7418,43.5
293.7817,35.2
293.8387,36
293.8842,105
293.8911,92.7
293.9034,69.5
293.9738,32.7
294.0034,36.7
294.0173,87.7
294.0225,57.9
294.1181,84.2
294.1345,66.9
294.1451,62.1
294.1556,140.3
294.169,38.5
294.1923,43.5
294.38,66.6
294.4284,66.4
294.5012,69.8
294.6615,50.7
294.715,31.7
294.8057,37.5
294.8303,38.3
294.8537,63.2
294.8803,27.6
294.8957,230.3
294.9033,24420.5
294.9535,77.7
294.9607,60.5
294.9818,239.3
295.0946,34.3
295.1178,35.6
295.1299,53.7
295.1397,401.3
295.1537,88.7
295.176,257.6
295.2151,38.1
295.2277,142
295.3876,75.9
295.4182,35.7
295.811,58.5
295.8953,44.3
295.9854,49.6
296.1137,77.9
296.1235,42.7
296.1506,344.7
296.1629,46.8
296.1919,40.2
296.4699,19
296.4972,41.2
296.7509,36.2
296.8901,121.2
296.9022,39.2
296.9074,27.5
296.919,4641.4
296.9478,45.7
296.9657,136.8
297.0193,47
297.0365,132.1
297.1092,39.7
297.1452,340.3
297.1655,30
297.1721,52.3
297.1805,45.4
297.2432,894.2
297.2564,40.1
297.2798,40
297.4861,18.7
297.5004,51.1
297.5485,36.5
297.9176,63.3
297.9876,35.5
298.0946,48
298.0984,33.6
298.1042,46.3
298.1294,612.4
298.1657,472.1
298.1879,53.7
298.2462,73.9
298.3396,85.1
298.4055,57.4
298.4181,46.1
298.4525,67.7
298.5053,38.3
298.54,37.2
298.6088,38.6
298.6191,36.9
298.7486,42
298.8657,41.2
298.8707,39.1
298.8871,139.8
298.9042,64.5
298.9133,918.3
299.1137,49.1
299.1244,215.9
299.1332,32.4
299.1498,312.3
299.161,420.9
299.1973,44.9
299.2226,28.7
299.2526,40.3
299.259,207.2
299.4985,72.8
299.5655,57.1
299.6344,39.7
299.8499,47.8
299.9134,42.7
299.9985,55.6
300.0047,979.3
300.1088,295.5
300.1451,1294.7
300.1558,115.8
300.1815,396.5
300.1913,34.9
300.1963,63.4
300.2337,43.2
300.2619,20.5
300.4232,54.1
300.5611,44.5
300.636,39.7
300.6641,40.9
300.7031,35.7
300.8742,48.7
300.8827,80.6
300.9038,4160.5
300.9113,54.6
300.9334,26.3
300.9664,39.5
300.9888,193.9
301.0085,90.8
301.0417,33.3
301.0613,41.6
301.1038,25.5
301.129,1140.4
301.1404,512.1
301.1655,721.7
301.1769,153.7
301.2381,392
301.3706,37.2
301.494,39.6
301.6825,54
301.894,35.1
302.0301,90.3
302.1244,1057.3
302.1357,69.6
302.1606,1746.3
302.1695,36.8
302.1972,257.9
302.3074,46.1
302.3218,49.2
302.3781,46.8
302.4821,80.2
302.5727,23.5
302.5952,42.3
302.6074,42.4
302.6093,41.7
302.6269,49.3
302.6627,40.1
302.7935,51.2
302.8641,81.4
302.911,429.3
303.0051,31.8
303.0532,31.1
303.1084,122
303.1197,91.6
303.1447,1829.4
303.1559,562.2
303.181,547
303.1918,91.6
303.1967,63.9
303.2328,495.2
303.2695,28
303.3001,26.8
303.4752,42.2
303.5444,33.6
303.5683,45.4
303.6264,32.7
303.6384,41.3
303.7603,31.7
304.1037,85.4
304.1238,47.3
304.14,1785.5
304.1602,37.1
304.1763,1354
304.2109,68.5
304.2361,47.2
304.3054,63
304.3447,51
304.4069,40.6
304.4967,40.3
304.6697,61.7
304.8289,53.9
304.8694,285.7
304.9135,74.1
304.9267,423.3
304.9702,63.1
304.9867,32.3
305.0364,114.9
305.1241,993.2
305.1351,68.3
305.1495,35.3
305.1602,1835.3
305.1717,237.4
305.1793,84.4
305.1967,545.9
305.2486,214.9
305.5132,33.8
305.8674,68.9
305.9018,43.6
305.9401,49.4
305.9702,44.7
306.1192,459
306.1556,1080.7
306.1632,68.9
306.1923,363
306.2299,55.8
306.2613,39.2
306.2785,47.6
306.2839,46.3
306.3125,33.1
306.3681,23.8
306.4608,65.6
306.5138,41.4
306.5234,28.5
306.5279,34.4
306.6021,72.9
306.6992,121.3
306.8883,57.3
306.9088,2945.8
306.9189,1475.8
306.9372,150.1
306.9814,54.2
307.0013,52.3
307.0799,68.2
307.0973,47.6
307.104,39.3
307.1187,33.4
307.1397,958.3
307.1513,94.9
307.176,993.8
307.1869,65
307.2015,49.1
307.2127,411.5
307.535,23.7
307.6154,38.7
307.6246,34.7
307.7116,35.6
307.8245,37.5
307.8581,43.4
307.879,45
307.9368,23.6
307.9908,36.8
308.0285,58.4
308.0966,37.7
308.1343,37.8
308.1624,33.5
308.2072,103.9
308.2605,33.7
308.2843,33
308.4631,41.2
308.4762,76.1
308.5824,43.7
308.7158,34.8
308.7768,34.3
308.8192,32.6
308.8582,26.4
308.8785,33.6
308.8954,118.2
308.916,458.3
308.9326,40.9
308.9615,38.8
308.9993,39.1
309.1127,34
309.1358,37.8
309.1559,43.1
309.1722,89.1
309.1915,68
309.5141,49.3
309.5739,25.9
309.6184,43.1
309.654,36
309.7004,79.2
309.76,43.2
309.8766,69.5
309.882,58.4
309.9137,59.4
310.1333,60.4
310.166,28
310.1756,74.6
310.2208,64.3
310.2597,33.7
310.2784,70.7
310.3081,52.2
310.3796,32.5
310.4771,37.7
310.6134,39.6
310.6304,39.3
310.7209,41.4
310.7551,43.3
310.8252,50.6
310.8588,64.5
310.8691,37
310.8773,8122.2
310.8945,41.8
310.9016,621.4
310.9069,39.4
310.9138,309.4
310.9308,755.3
310.9516,43.1
310.9579,42.2
310.9991,21.2
311.0178,60.8
311.1247,35
311.1339,31.7
311.1465,45.7
311.1609,47.3
311.1681,44.4
311.1929,42.1
311.2689,37.5
311.2814,39.4
311.383,63.8
311.5604,29.9
311.5742,40.4
311.5895,53.5
311.7265,38.8
311.7531,33.1
311.7787,47.2
311.8624,51
311.9338,138.2
311.9524,25.9
311.9805,29.3
312.1228,78.1
312.1445,306.4
312.1552,33
312.1815,119.6
312.2314,31.8
312.3171,26.5
312.3667,77.8
312.5671,34.6
312.7568,42.4
312.8642,53.5
312.8763,89.3
312.8847,113.4
312.8931,814.9
313.0524,1414.5
313.0651,4125
313.1072,41
313.1295,132.4
313.1402,303.8
313.1651,99.2
313.1771,121.6
313.2393,33
313.4956,37.6
313.5482,48.4
313.6352,40.8
313.7147,74.5
313.8634,42.9
313.8732,76.7
313.8833,30.2
313.8985,46.1
314.0041,32.1
314.0882,54.8
314.1241,303.9
314.1365,29.8
314.1606,890.1
314.1718,67.6
314.4109,38.2
314.5922,54.9
314.5986,71.2
314.8326,27.7
314.8855,2844.5
314.9521,74.2
315.0412,10253.4
315.1081,43.2
315.1444,622.6
315.156,643.3
315.1815,123.9
315.1923,140.9
315.1982,34.5
315.4126,37.2
315.4591,51.1
315.8856,31.2
315.942,36.6
316.0445,814
316.0779,48
316.1033,39.4
316.1135,36.6
316.1399,1172.3
316.1514,39.9
316.1762,883.2
316.2021,35.7
316.2076,54.7
316.2132,44.7
316.3163,39.9
316.4041,28.5
316.543,52.2
316.5804,30.2
316.6602,28.9
316.8658,40.9
316.8778,1467.1
316.8871,82.7
316.8972,78.2
316.9006,70.4
316.9303,53.1
316.9477,9117.6
316.9631,21
316.9747,44.5
317.0133,26.3
317.0449,29.3
317.1238,297.2
317.1355,182.2
317.1604,1006
317.1714,583.9
317.19,19.7
317.1975,40.1
317.2068,37.7
317.2476,61.5
317.2848,236.2
317.3458,56.6
317.4472,46.2
317.6499,45.4
317.7073,46.6
317.861,41.9
317.8826,47.3
317.9038,25
317.9432,84.2
317.9509,392.1
318.0265,41.5
318.1194,240.6
318.1314,37.6
318.1555,1410.9
318.1644,34.2
318.192,716.6
318.2873,36.9
318.3672,41.5
318.442,50
318.5277,27.1
318.6216,46.9
318.8309,39.1
318.8441,33.6
318.879,36.5
318.8851,24.2
318.9292,71.6
318.9342,60.3
318.9519,97
318.9789,27.8
319.1395,1059.5
319.1508,176.4
319.1624,47.8
319.1761,1140.1
319.1871,103.2
319.212,95.4
319.225,71.5
319.273,53.2
319.2999,47.4
319.4682,35.6
319.5139,75.1
319.5797,55.7
319.6411,39.5
319.7062,41.7
319.7261,36.1
319.7454,35.3
319.788,30.1
319.8101,34.8
319.8323,33.6
319.9342,18.1
319.9773,60
320.1263,41.8
320.1345,298.3
320.1558,48.6
320.1713,870.7
320.1982,45.1
320.2075,105.2
320.3136,38.2
320.7683,41.1
320.8719,115.6
320.8952,815.9
320.9897,50.3
321.0775,33
321.1061,53.9
321.1197,54.7
321.1553,1047.1
321.1673,37.7
321.1755,31.3
321.1917,308.2
321.2283,98
321.3134,59.7
321.4398,63.4
321.4695,68.4
321.4912,51.6
321.8558,40.8
321.8817,42.4
321.8953,18.6
322.0045,27
322.1505,273.6
322.1727,80.8
322.1867,127
322.2145,35.4
322.2247,66.2
322.2397,36.7
322.2642,33.9
322.2783,40.1
322.2818,37.7
322.3861,46.1
322.3998,35.4
322.4896,56
322.5855,53.7
322.6887,33
322.7349,45.7
322.8824,2017.1
322.8856,1456.9
322.8928,300.9
322.9064,41.2
322.9203,58.4
322.9794,19.8
323.0123,55.9
323.0218,40.5
323.1202,30
323.1337,133.2
323.1503,71.2
323.1619,56.8
323.1708,243.4
323.2074,228.8
323.2199,24.9
323.5612,53
323.7846,19.4
323.8089,64.5
323.8611,38.8
323.8675,157.4
323.8865,74.2
323.9472,71.3
324.1693,30.8
324.3374,39.8
324.3698,66.5
324.4391,471.6
324.4463,374.6
324.4532,496.4
324.4583,374.9
324.4647,176.8
324.7983,54.4
324.8843,98.5
324.8898,68
324.9066,43.8
324.9139,880.6
324.9321,18
324.9614,19
324.9879,43.4
325.1486,40
325.1655,39.4
325.1777,46.1
325.1837,40.5
325.2202,50.3
325.2531,37.3
325.3083,31.1
325.3915,80.4
325.4417,64.9
325.6898,32.7
325.9081,19.2
325.9786,38.6
325.9975,45.9
326.0135,33.5
326.1219,47.7
326.1354,100.5
326.1604,130.7
326.1984,19.7
326.2354,71.5
326.762,74.5
326.804,41
326.8436,93.5
326.8513,193.1
326.8752,73.6
326.9084,109.9
326.9295,644.6
326.9438,63.8
327.0647,36.4
327.0809,33.4
327.0933,34.7
327.145,98.7
327.156,139.4
327.2327,21.6
327.2542,118.6
327.283,56.3
327.3023,45.3
327.3178,34.3
327.3427,61.5
327.4048,38.9
327.4276,25.1
327.5024,37.4
327.5162,41.1
327.5755,32.2
327.6553,43.8
327.8509,36.5
327.887,185
328.057,81.1
328.0776,37.5
328.1399,325.9
328.1512,160.3
328.1764,364.2
328.1964,68
328.3399,145.1
328.3528,40.7
328.363,84.5
328.6304,23.7
328.691,42.6
328.8207,32.4
328.8507,33.8
328.879,91.3
328.8908,2331.6
328.9247,7288.9
328.945,56.9
328.9759,55.7
329.03,10394.8
329.0382,52.1
329.0541,42.4
329.1243,73
329.1363,137.7
329.1608,235.1
329.1714,194.9
329.1957,142.8
329.2699,78.2
329.2877,37.8
329.5107,37.9
329.8473,37.4
329.9243,273
330.0335,477.6
330.0444,58.8
330.0631,64
330.1193,126.5
330.1308,45.9
330.1554,712.5
330.1654,48.8
330.192,563.4
330.2014,42.5
330.226,66.6
330.5218,34.1
330.6721,42.7
330.859,71.4
330.88,40.5
330.9216,205.4
330.9793,527.3
331.0052,40.2
331.0336,24.7
331.1022,35
331.115,31.9
331.1396,219.9
331.1507,344.1
331.1601,54.7
331.1757,544.4
331.1876,51.9
331.2071,44.3
331.3925,57.8
331.4463,41.1
331.583,19.9
331.6456,17.4
331.7213,36.1
331.8263,38.7
331.8778,133.3
331.8821,50.1
331.9708,18.6
331.9819,72.9
332.0765,38.7
332.1346,281.8
332.1711,938.7
332.208,84.3
332.2194,50.1
332.2576,29.1
332.2887,45.5
332.3771,57
332.4024,45.8
332.604,37.6
332.7734,43.4
332.8445,29.8
332.8566,25.3
332.8728,55.4
332.9215,2141.4
333.0228,53.5
333.0374,49
333.1187,120.8
333.1554,581
333.1666,187.9
333.1917,327.9
333.2031,35.7
333.2102,42.5
333.2299,32.5
333.3469,54
333.3751,49.8
333.5159,30.5
333.5293,48.6
333.5554,19.7
333.9247,61.3
334.0439,89
334.0509,35.2
334.1136,47.2
334.1367,50.5
334.1504,409.1
334.1869,513.7
334.2234,104.6
334.2596,34.9
334.3264,40.3
334.5575,24.3
334.7248,61.2
334.8163,41
334.8519,42.7
334.8958,7756.5
334.9193,109.2
334.9248,50.1
335.034,42.7
335.047,2107.6
335.1341,88.9
335.1706,397.6
335.2074,270.6
335.2579,50.9
335.3529,44.1
335.3704,40.2
335.7379,43.6
335.7939,39.9
335.8254,53.7
335.8545,43.3
335.8756,609
335.8867,63.9
335.9401,41.1
335.9506,49.6
336.0216,40.6
336.1038,111.2
336.1132,22.5
336.1667,175.9
336.1837,44.9
336.2024,116.8
336.3432,44
336.5955,70.7
336.644,46.3
336.8671,132
336.8867,27.6
336.8924,74.9
336.8981,185.6
337.0422,79.7
337.1258,50.2
337.131,32.8
337.1414,41.2
337.1622,47.3
337.174,42.4
337.186,32.4
337.2224,49.8
337.2492,18.9
337.2898,45.8
337.4093,34
337.4884,53.2
337.5181,44.5
337.7972,44.9
337.8376,55.2
337.8496,66.5
337.893,34
338.0847,35.9
338.1921,23.1
338.2264,48.2
338.2532,57.4
338.3914,45.8
338.4066,64.9
338.4342,29.9
338.5984,41.9
338.8218,38.8
338.837,46.8
338.8682,61.4
338.8703,64.6
338.8776,442.3
338.9526,44.4
338.9651,30.8
338.9842,53.6
339.0315,49.7
339.0422,18.4
339.1559,109.2
339.1805,83.2
339.2502,55.8
339.2556,33
339.3287,42
339.442,36.7
339.5243,50.3
339.5674,47.9
339.7393,31.1
339.8536,63.1
339.8642,73.4
339.8755,86.1
340.0002,54
340.0768,37.8
340.1405,52.9
340.1769,118.2
340.2349,34.3
340.3711,41.4
340.4128,32.8
340.4471,51.3
340.457,47.7
340.5263,42.5
340.6171,32.6
340.6247,67.6
340.7508,19.5
340.7826,94.7
340.8132,35.9
340.8665,46.3
340.888,407
340.9091,331
340.9666,45.2
340.9945,77.2
341.0611,36.6
341.1716,257
341.3002,31.8
341.3574,49.1
341.4051,54.6
341.5602,66
341.6125,44.7
341.6508,42.7
341.7097,44
341.9991,830.7
342.13,39.5
342.1392,63.3
342.1553,165.3
342.1668,110.1
342.2,86.5
342.369,40.6
342.582,18.7
342.6643,38.4
342.6821,16.1
342.8692,54.2
342.9033,217
342.9475,63.6
343.0023,27.5
343.0796,39.8
343.1406,54.1
343.1505,40.5
343.1598,48.8
343.1756,46.3
343.1868,162.1
343.2768,53.3
343.2877,40.6
343.3829,83.9
343.6759,33.5
343.7859,48.1
343.8766,43.4
343.8828,49.5
343.8908,39.8
343.9742,60.6
343.9946,15904.7
344.0048,95.6
344.0147,57.1
344.1161,39
344.1347,217
344.1509,37
344.1712,504.1
344.1833,48.8
344.1918,63.2
344.208,52
344.3611,30.7
344.3674,34.1
344.5255,63.5
344.6556,47.5
344.8511,74.5
344.8648,895.4
344.8781,50.7
344.8945,27.2
344.9788,1032.7
344.9925,51.8
344.9986,1206.6
345.1298,63.2
345.1547,269.8
345.1664,174.7
345.1918,302.6
345.2029,84.7
345.4954,61.8
345.6318,48.2
345.8283,31.3
345.87,90.5
345.9982,196.2
346.0064,29.4
346.0971,61.5
346.1292,38.2
346.1509,301.7
346.1868,455.7
346.2232,71.8
346.5814,41.9
346.5969,66.6
346.6045,40
346.7974,35.1
346.8643,249.5
346.888,21.5
346.9192,34.3
346.9928,22
347.0027,1908.4
347.0628,48.6
347.1348,42.9
347.1454,46.7
347.171,501.5
347.1817,368.8
347.208,68.9
347.3513,30.1
347.5924,50.8
347.6955,40.3
347.9939,35.3
348.0061,171.2
348.0678,26.9
348.1297,53.7
348.1428,42.2
348.1664,154.2
348.187,80.5
348.2018,314.4
348.2327,64.2
348.3524,48.4
348.369,35.8
348.5722,41
348.6987,57.2
348.8957,223.9
348.9256,32.9
348.9983,736.4
349.122,30.7
349.139,38.5
349.1618,45.1
349.1864,270
349.1962,111.3
349.2052,47.4
349.2335,46.6
349.3576,36.4
349.6017,47.5
349.8305,37
349.8539,44.3
349.871,49.7
350.0027,23.5
350.0192,40.9
350.0533,70.7
350.1451,117.2
350.1818,238
350.2178,46.8
350.4271,41.5
350.6092,18.7
350.6244,35.8
350.8699,2976
350.8845,52.7
350.8936,58.7
350.9012,51.9
350.9339,28
350.9502,65.6
350.9779,66.6
350.9959,50.8
351.0119,2859.9
351.2011,116.7
351.338,37.6
351.3553,64.3
351.4037,39.2
351.7869,25.8
351.8639,53.1
351.873,178.5
351.997,134.2
352.0152,103.2
352.0893,32.2
352.0955,32.4
352.1607,81.1
352.4509,32.1
352.5059,21.2
352.6791,52.9
352.7762,30.2
352.8456,120.5
352.8643,108.6
352.9965,880.3
353.0106,41.3
353.1482,82.1
353.2063,88.7
353.2915,64
353.3102,66.4
353.5427,26.2
353.6002,39
353.6867,35.8
353.7392,20.2
353.7821,72.5
353.8571,152.6
353.9843,34
353.9955,47.1
353.9984,41.8
354.1719,56.2
354.2025,35.8
354.2404,37.8
354.3117,35.4
354.3382,32.7
354.4123,42.5
354.7418,58.4
354.811,39.6
354.8524,39.5
354.8558,51
354.8593,54.6
354.8659,55.9
354.8776,230.8
354.9245,525.8
354.9441,81.2
354.9934,403.3
355.0054,41.4
355.0343,93.1
355.1432,48.4
355.1501,55.4
355.1876,53.1
355.2859,41.3
355.3488,70.5
355.4542,47.8
355.464,41.7
355.481,34
355.4996,41.3
355.5958,36
355.7888,37.8
355.8696,48
355.8988,34.7
356.0596,20.4
356.1532,35.7
356.1713,129.8
356.2229,53.6
356.3504,60.9
356.4385,30.4
356.7449,32.6
356.751,44.9
356.8617,72
356.8698,56.4
356.8835,37.4
356.9037,856.4
356.94,490.1
356.9494,47.5
356.9707,38.2
356.9923,284
357.0286,419.5
357.0865,68.9
357.1522,57.5
357.1676,68.6
357.2009,72.4
357.2219,24.6
357.4639,29.1
357.5018,46.9
357.5098,85.9
357.5208,58.8
357.5949,38
357.6594,31.7
357.8109,23.5
357.8851,45.1
357.9251,34.6
357.9762,43.2
358.032,60.8
358.1371,32.7
358.1501,277.3
358.1641,78.4
358.1868,482.3
358.3012,39
358.6673,78.3
358.7182,62.6
358.8427,40.1
358.853,43.1
358.8603,46.5
358.88,725.1
358.8945,47.9
358.9211,44
359.0685,38.9
359.1361,60.1
359.1457,114.2
359.1704,119.8
359.1821,103
359.2062,47
359.2177,40
359.283,31.4
359.3149,32.4
359.3434,60.5
359.3538,54.7
359.374,132.8
359.395,78.1
359.405,72.1
359.4096,51.8
359.4372,87
359.4446,101.6
359.4518,68.1
359.4572,66.6
359.4726,116.2
359.487,75.8
359.4944,54.9
359.5085,139.2
359.5271,34.7
359.5376,100.7
359.5532,120.5
359.8794,38.4
359.936,389.2
359.9712,21.6
360.0524,55.4
360.0985,28
360.1665,269.8
360.1913,38.1
360.2021,366.9
360.2128,53.1
360.2386,92.5
360.2668,59.1
360.2786,43.7
360.4911,45.4
360.8301,40.1
360.8422,45.5
360.8627,46
360.8779,88
360.888,289.2
360.9746,56.6
361.1141,61.4
361.1266,38.9
361.1502,101.1
361.1868,47.8
361.1979,203.3
361.2148,33.1
361.4629,46.5
361.487,64
361.7515,45.7
361.7675,63.7
361.8771,223.6
362.0151,74.3
362.0474,69.3
362.1455,142.2
362.1819,282.5
362.208,38.4
362.3108,49.9
362.3958,44.6
362.4883,33.2
362.6072,48.4
362.8349,50
362.8907,1108
362.9141,36.4
362.941,64.2
362.9688,36.8
363.1053,76.5
363.1648,55.2
363.2023,57.1
363.2134,122.6
363.2882,39.5
363.6248,70.6
363.644,42.7
363.7225,31.6
363.7986,68.4
363.812,46.3
363.8364,29.6
363.8593,104.2
363.921,18.2
364.1615,169.1
364.1745,37.1
364.1969,303.5
364.2321,48
364.2873,27.2
364.328,32
364.3471,24.2
364.4151,31.3
364.4212,68.1
364.4685,62.4
364.531,76.6
364.6487,47.6
364.8337,48.5
364.8634,30.5
364.8717,41.4
364.8778,86.9
364.9068,265
364.9195,51.7
365.1425,31.9
365.1533,30.9
365.1823,55.1
365.2181,51.5
365.3899,48.4
365.5936,33.4
365.7022,40.9
365.8658,92.1
365.8803,95.8
366.0427,65.2
366.052,69.8
366.1566,76.5
366.1631,100.1
366.178,40.3
366.1968,48.8
366.3015,35
366.4888,17.3
366.5248,37.6
366.7529,52.2
366.8638,80.4
366.875,81.8
366.9133,50
366.9856,78.9
367.0969,25.3
367.1197,105.4
367.1904,114.8
367.1969,70.5
367.3659,45.2
367.4765,42
367.5629,33
367.632,29.4
367.766,52.4
368.0141,47.9
368.0546,48.1
368.1509,36.6
368.1718,185.8
368.1831,34.4
368.2708,71.2
368.3156,57.1
368.5792,76.7
368.6805,41.8
368.8243,35
368.8366,24.3
368.8442,45.1
368.8895,138.3
368.969,28.7
368.9848,409.8
369.0049,53
369.0193,34.5
369.0512,37.6
369.1545,41
369.1669,96.2
369.3391,56.9
369.4786,54
369.5189,42.5
369.601,17.9
369.9878,69.8
369.9977,38.9
370.1504,33
370.1864,183
370.2509,39.7
370.4453,50.5
370.4991,48.3
370.5344,35.6
370.825,46
370.8507,57.9
370.8674,261.2
370.8984,289.9
370.9189,45
370.9719,339.7
370.9802,147.4
370.9917,83.7
371.1256,81.3
371.1476,68.6
371.1712,101.3
371.1822,104.4
371.2153,42.7
371.2591,67
371.3514,58.9
371.3762,41.5
371.7671,33
371.79,68.4
371.8027,59.9
371.8519,59.9
371.8588,39.5
371.9697,70.6
372.133,41
372.1421,47.5
372.1671,214.4
372.1757,22.4
372.2025,149.7
372.7697,55.6
372.8287,56.1
372.8484,129.6
372.8648,37.3
372.8771,199.7
372.9138,182.6
372.9993,83
373.1477,55.4
373.1613,120.3
373.1864,165.1
373.1982,212
373.2588,30.8
373.3185,40
373.3472,264.6
373.3551,39.3
373.4754,51.8
373.5097,29.6
373.6932,58.3
374.1821,441.4
374.1933,88.5
374.2173,38.8
374.3508,43.7
374.4424,22.7
374.625,31
374.644,31.7
374.8614,71.3
374.9063,693.9
374.9429,41.4
374.9784,186.7
375.0354,134
375.1593,44.1
375.1667,98.4
375.1772,39.6
375.2141,90.8
375.276,20.1
375.3496,64.4
375.701,53.7
375.9099,37.7
375.9759,27
376.0591,52.6
376.1042,48
376.142,27.2
376.1771,50.8
376.197,283.1
376.2336,123
376.2461,34.9
376.2726,33.7
376.3318,70.2
376.345,279.4
376.508,23.8
376.7871,38.8
376.9034,174.2
376.9651,33.6
376.9754,88.1
377.0471,48.9
377.0637,32.1
377.192,143.3
377.2176,73.6
377.3377,75.2
377.5366,52.6
377.7595,49.9
377.8647,62.4
378.0795,55.8
378.0831,42.4
378.1219,23.5
378.1607,40.7
378.1757,68.5
378.2132,123
378.2285,55.4
378.2566,78.1
378.3523,45.1
378.535,62.7
378.6866,39.7
378.7698,35.3
378.8436,30.9
378.8539,83.7
378.8646,279
378.9021,32.1
378.9182,631.1
378.9748,93.8
379.0179,21.2
379.1214,37.3
379.1604,117.4
379.179,51.7
379.1857,69.6
379.1968,175.8
379.2079,42.2
379.3192,36.6
379.3451,83.5
379.4531,53.8
379.495,67.5
379.5738,48.3
379.7728,69.9
379.8466,60.2
379.8627,81.8
379.9179,34.8
380.1571,51.2
380.1923,49
380.2665,45.8
380.275,43.1
380.4908,70.8
380.51,50.6
380.8295,91.2
380.8399,51.3
380.862,299.1
380.8807,62
380.9769,138.6
381.1135,61.7
381.1302,68.8
381.1662,37.7
381.253,78.4
381.2683,41.3
381.3318,54.7
381.3684,37.5
381.5024,54.2
381.5886,82.8
381.6814,78
381.8628,177.3
381.9197,83.2
381.9489,36.8
381.9916,21.8
382.1289,41.3
382.171,49.4
382.2083,49.5
382.2335,47.2
382.3339,36.2
382.4169,44.4
382.5629,50
382.746,22.2
382.8529,190
382.8613,41
382.8731,183.4
382.898,65.4
382.9393,57
382.9954,49.7
383.0285,787.5
383.0564,55.2
383.0845,41.1
383.1691,55.3
383.1762,43.2
383.1822,57.5
383.1947,38.2
383.2756,69.8
383.3008,71.1
383.3505,69.2
383.7424,28.4
383.7814,41.1
383.8381,34.6
383.987,556.7
384.0307,81
384.086,36.2
384.2018,117.4
384.2723,29.6
384.4841,76.9
384.6196,34.6
384.6811,39.3
384.8592,62.8
384.935,3363.1
384.9589,54.1
385.0213,43.9
385.1758,31.5
385.1999,101.8
385.3249,30.9
385.5483,54.2
385.6006,64.8
385.6449,54.1
385.756,40.5
385.8535,65.9
385.9385,140.8
385.9793,69.1
386.1426,85.3
386.1556,41.4
386.1676,55.8
386.1823,177.9
386.3074,23
386.3997,52.5
386.6139,64.8
386.8286,74.4
386.8546,37.7
386.8718,35.8
386.8849,52.2
386.9162,54.7
386.9387,57.8
387.1054,32.8
387.1417,41.1
387.178,73.4
387.2135,43.2
387.4679,58.4
387.6435,35.6
387.7639,17.8
387.9433,78.6
387.9958,37.8
388.1567,84.7
388.1605,90
388.1809,36.1
388.1967,224
388.3514,44.5
388.3796,75.5
388.4598,38.6
388.5037,39.4
388.6521,79.4
388.8102,39
388.8338,43.5
388.8566,75.6
388.8694,66.2
388.8909,88.8
388.9301,19.6
389.0844,58.9
389.1577,22.8
389.1785,50.7
389.1817,50.3
389.2283,90.3
389.2656,46.2
389.3422,57.3
389.633,46.3
389.6842,18.3
389.8087,47.4
390.107,49
390.1761,43.5
390.1803,42.5
390.2123,102
390.4457,26.1
390.604,53.2
390.6611,38.5
390.7338,45
390.7388,35
390.7439,36
390.7502,63.5
390.7642,33.4
390.7795,37.9
390.8142,48
390.8481,124.7
390.8555,58.4
390.8803,249.2
390.9002,84.5
391.0052,66.4
391.0192,32.3
391.0398,52.1
391.2499,37.6
391.2723,98.1
391.5917,42.1
391.6256,18.1
391.7008,35.8
391.8598,49.6
391.9042,61.6
391.9418,44.4
392.1349,41
392.1569,99
392.1928,83
392.2044,34.8
392.2282,49.3
392.2527,18.9
392.2597,21.1
392.2828,45.6
392.2911,71.4
392.3423,46.6
392.4186,37
392.4843,114.3
392.5188,32.7
392.5333,39.4
392.8464,102.1
392.8629,4499
392.8771,117.3
392.9016,99.4
393.0766,71.7
393.3967,41.3
393.4563,40.6
393.5991,36.1
393.6626,45
393.7636,34.2
393.8301,79.4
393.8621,155.3
393.9677,28.4
394.1889,47.8
394.1968,46.9
394.212,40.3
394.3359,61.5
394.5884,58.6
394.6323,36.6
394.7971,44.8
394.8129,127.7
394.8547,39.9
394.8926,108.5
394.9171,199.2
394.9757,795.5
395.0262,99.4
395.1192,56.8
395.1844,28.9
395.1888,60.6
395.212,54.9
395.2284,40.7
395.293,58.6
395.3019,36
395.4893,45
395.7717,54.4
395.8112,50.4
395.8495,85.7
396.1683,72.5
396.3501,60.6
396.4652,37.9
396.5903,49.4
396.6377,47.8
396.6619,41.4
396.8434,136.1
396.9981,51.9
397.0174,96
397.1354,41.4
397.1459,53.7
397.2645,56.1
397.4719,31.6
397.6436,43.4
397.7446,43.3
397.8685,62.7
397.8706,64.2
397.8748,52.9
397.9496,30.8
398.1552,38.7
398.1684,68.7
398.1808,44.1
398.2181,41.7
398.2801,38.1
398.4349,30.4
398.4566,63.2
398.5952,62
398.8187,28.3
398.8465,29.2
398.8564,40.2
398.8721,194
399.0233,146.7
399.0721,71.4
399.0789,47.5
399.1099,31.7
399.1764,41.7
399.1892,56.6
399.212,52.2
399.5592,24.9
399.8387,39.7
399.8729,48.5
399.9454,55.2
399.9638,55.2
400.0031,65.2
400.0422,34.2
400.1684,67.3
400.1966,102.6
400.264,46.9
400.365,56.1
400.3823,49.3
400.4684,69.5
400.6117,34.5
400.8156,74.6
400.8369,43.1
400.8673,1251.7
400.9089,1309.7
400.918,33.3
401.0002,45.4
401.1921,40.1
401.9124,66.5
401.9529,216.7
402.0194,38.7
402.1763,127.1
402.2132,57.3
402.3141,50.5
402.3243,34.3
402.3971,31.7
402.4482,43
402.469,111.5
402.5931,60.7
402.8832,88.6
402.9072,66.4
402.9404,47.4
403.0107,47.2
403.1746,50.3
403.2086,53.4
403.3392,35
403.3632,59.1
403.4685,42
403.5044,64.6
403.6484,71.7
403.6606,30.4
403.6964,32.7
403.7299,61.9
403.7724,39.5
403.9049,89.9
403.9527,77.1
404.1937,57.2
404.2363,48.9
404.4678,65.3
404.5888,40.4
404.6456,54
404.6834,37.9
404.7225,33.3
404.8545,40.4
404.8603,52.6
404.9024,41.4
404.9328,75.8
405.1767,40.9
405.1893,87.8
405.2241,33
405.451,22.3
405.4711,46.7
405.4954,50
405.6938,52.5
405.8354,54.2
405.9559,63
405.9692,158.1
406.1616,56.2
406.2087,165.5
406.2428,55.6
406.8385,44.1
406.8684,891.3
406.902,6611.3
406.9531,26.6
407.3184,55.8
407.3439,70.4
407.5199,41.8
407.5359,62.6
407.7147,82.9
407.8323,21
407.8501,86.7
407.8626,33.8
407.8826,36.2
407.902,419.7
407.9877,59
408.0753,77.5
408.1037,69.3
408.1403,45.5
408.1987,33.4
408.2163,33.3
408.2237,46.5
408.3059,37.4
408.6571,55.1
408.8754,37
408.8988,218.1
408.9523,50.3
408.9569,45.9
408.9778,45.4
409.0223,29.2
409.1092,40.8
409.1964,37.6
409.2076,51
409.3313,54.9
409.4628,42.1
409.4944,35.5
409.7837,75
409.8983,39.2
409.9388,48.8
410.1433,35.2
410.1696,31.5
410.4069,45.1
410.5653,119.4
410.7633,40.5
410.8338,71.4
410.8909,89.2
410.8993,54.2
410.9737,21.4
411.1645,28.4
411.1869,28.9
411.2134,34.4
411.3979,62
411.544,29.1
411.5645,31.3
411.5996,49.7
411.8032,56.2
411.8249,44.7
411.8426,64
411.9821,1120.7
412.0116,82.7
412.0597,40.5
412.0837,31.1
412.1702,43
412.2284,44.6
412.2581,35.8
412.6214,55.5
412.7172,39.5
412.7583,24
412.8238,48.2
412.8728,245.8
412.932,76.5
412.9769,18.6
413.0191,44.4
413.0792,74.1
413.1177,38.2
413.1439,93.7
413.2019,59.6
413.2272,94.8
413.2446,33
413.3399,52.5
413.376,38.1
413.3949,46.3
413.892,23.7
413.9291,38.9
414.0579,32
414.0934,76.7
414.1754,48.5
414.1881,62.1
414.2556,53.5
414.3769,28
414.4118,35.5
414.4299,25.6
414.4446,39.2
414.7713,41.6
414.8251,45.8
414.8447,3568
414.8677,100.5
414.9573,78
414.9756,24.6
415.0338,47.7
415.0736,17.1
415.1818,83.1
415.2081,81.6
415.3253,35.8
415.433,20.1
415.4411,42.2
415.5941,53.5
415.845,145.2
415.8554,42.9
415.9315,20.6
415.9609,60.8
416.1261,44.1
416.1556,125.7
416.1899,28.7
416.2304,33.4
416.3155,16.5
416.3382,39.9
416.6301,60.9
416.6445,56.6
416.7437,20.4
416.8018,49.6
416.8414,646.8
416.883,198.9
417.0466,42.4
417.0722,53.8
417.2119,43.8
417.4223,50
417.536,17.7
417.6853,32.7
417.7596,35.8
417.8107,66.4
417.845,35.5
418.2071,46
418.2503,27.3
418.8435,62.5
418.8577,47.3
418.8958,42.3
418.9658,24.4
418.9995,343.8
419.0499,39.8
419.1454,38.1
419.2165,37.3
419.2919,52.2
419.4874,37.5
419.5166,64.7
419.9437,32.4
420.0249,63
420.1873,100.2
420.2133,44.7
420.225,40.3
420.4275,49
420.5096,43.9
420.5993,78.4
420.7461,54.9
420.8543,1010.1
421.0055,107.7
421.1463,43.7
421.2078,45.7
421.3572,43.4
421.4399,70.3
421.8343,57.2
421.8477,75.2
421.9097,55.1
422.0065,58.9
422.1128,42.2
422.1665,38.1
422.4818,66.6
422.5481,40.9
422.5562,24.2
422.8435,78.6
422.8515,41.9
422.9117,263.3
423.0208,152.1
423.1336,43.7
423.1631,36.8
423.489,109.5
423.8988,47.4
424.0876,44.6
424.2061,27.3
424.2754,33.8
424.3118,30.7
424.5511,48.6
424.8493,20.3
424.9271,201.3
425.1323,26.8
425.2242,53.9
425.3043,67.8
425.5303,29.2
425.8064,47.8
425.8325,42.3
426.191,36.8
426.5059,32.3
426.8011,33.8
426.8368,42.8
426.9527,66.3
427.0667,43.4
427.0833,42.1
427.1879,46.4
427.2465,41.9
427.3526,47.8
427.3629,70.1
427.4909,85.2
427.5262,39.8
427.6472,44.5
427.8397,37.9
428.2411,51.6
428.2872,33
428.5186,43.1
428.8256,37.6
428.8334,18.9
428.8512,714.4
429.1864,48.1
429.2221,49.9
429.4533,42.1
429.4565,50.7
429.4605,36.3
429.5787,28.1
430.2087,85.9
430.2446,52.6
430.3025,43.1
430.5928,43.1
430.709,35.4
430.8103,45.7
430.8191,46.2
430.8353,42.3
430.8522,42.7
430.8791,38.7
430.9732,101.8
431.0128,63.4
431.1601,73.9
431.2781,46.3
431.3271,35.9
431.4242,50.9
431.5284,49.8
431.5436,34
431.6031,29.3
431.6337,34.7
431.6453,44.3
431.8361,70.1
431.9059,48.1
431.9174,59.7
431.9547,52.9
431.9637,62
431.977,49.4
432.1881,44
432.2775,58.9
432.3271,66.4
432.4807,59.7
432.492,37.6
432.578,44.9
432.6424,41.9
432.6603,36.9
432.767,64.6
432.8147,60.7
432.8405,45.2
432.8936,22.8
432.9079,54.3
433.0078,63.8
433.2347,53.3
433.4066,34.6
433.7228,42.4
433.7549,40.3
433.877,70.4
434.0891,61.7
434.294,51.3
434.306,28.8
434.3294,35.3
434.4427,39
434.6258,35.2
434.797,36.7
434.8605,72.1
434.9642,51.1
435.09,77
435.1589,42.9
435.2786,67.2
435.3299,18.6
435.5123,62.6
435.9124,48.7
436.2176,44.3
436.3439,53.2
436.3609,81.6
436.4233,38.6
436.8272,345.4
436.8782,115.2
436.9732,25
436.9811,55
437.0836,47
437.1855,65
437.2044,51.4
437.5032,62.8
437.6895,18.3
437.7747,67.1
437.834,39.8
437.868,93.2
438.1555,67.2
438.3388,60.4
438.4081,47.6
438.4579,30.9
438.5784,32.4
438.82,106.5
438.8837,40.2
438.9181,72
439.0826,46.4
439.0985,26.3
439.1666,32.3
439.3758,50.4
439.4629,42.8
439.5325,38.5
439.6225,87.5
439.8236,70.7
439.8347,38
439.9317,83.8
440.0498,46
440.1114,39.5
440.2013,63.2
440.2114,50.3
440.2745,40.2
440.745,39.6
440.8101,68.4
440.8648,20.5
440.9892,43.8
441.0415,32.5
441.1933,43.1
441.1987,64.7
441.2008,64.6
441.2059,57.1
441.2757,31
441.4456,51.3
441.719,36.2
441.8218,37.2
441.8327,45.3
442.1573,42.9
442.2467,124.8
442.3269,52.2
442.5214,41.2
442.5667,20.8
442.6444,53.1
442.8092,56.2
442.8226,42.9
442.8328,30
442.8473,43.2
442.8935,367.7
442.9147,58.7
442.9791,34.6
443.6391,51
443.7013,42.1
443.7397,41.8
443.8148,37.6
443.8249,31.7
443.9474,55.4
444.1865,41.4
444.3396,42.2
444.5835,44.9
444.8225,55.6
444.8327,45.7
444.8807,30.2
444.8909,144.6
444.9153,36.8
444.9721,487.8
445.1238,25.2
445.1677,49
445.2768,28
445.3935,21.1
445.837,106.2
445.8627,22.9
445.9016,57.5
445.9801,41.4
446.1376,79.3
446.2152,47.2
446.2695,64.8
446.2971,25.8
446.6518,34.6
446.6654,50.1
446.7779,48.7
446.8518,28.3
446.9059,264.5
447.1977,48.5
447.2182,71.7
447.597,19.5
447.9338,31.6
447.9501,54.7
448.1602,66.3
448.212,61.3
448.2162,63.5
448.5848,19.3
448.5974,22.4
449.1663,32.6
449.1967,45.6
449.214,67.9
449.2855,46.3
449.5728,43.7
449.7183,44.8
449.816,41.2
449.9027,41.7
449.9558,36.2
449.9945,46.6
450.1101,52.5
450.1707,25.5
450.2722,34.2
450.3214,54.7
450.8243,65.7
450.8446,46.5
450.8701,28.4
451.0181,79.2
451.0313,50.6
451.1625,63.2
451.2123,74.3
451.223,17.9
451.298,40.6
451.4237,47.5
451.433,41.1
451.4754,29.5
451.5181,45.3
451.5417,18.4
451.6437,76.1
451.9739,61.3
452.0551,55.6
452.1653,40.4
452.1891,105.1
452.2136,43.9
452.244,79.2
452.7102,32.7
452.7949,40.7
452.8763,37.7
452.9002,40.8
452.9226,1539.9
452.936,38.2
452.9666,36.3
452.9945,33.9
453.1979,71.5
453.4327,42.5
453.4441,47.5
453.5042,51.1
453.5139,61.3
453.658,54.8
453.6624,54.6
453.8975,37.6
453.9257,125.3
454.1644,37.2
454.3292,34.3
454.4822,36.2
454.8269,49.9
454.8702,38.9
455.1198,67.6
455.202,37.8
455.2845,53.2
455.3287,43.1
455.3367,48.6
455.4179,41.7
455.5491,41.5
455.5896,18.7
455.7258,50.9
455.8003,44.7
455.8113,63.9
455.828,36.7
455.8377,47.7
456.0666,49.7
456.1645,50.6
456.8096,38
456.8655,31.9
456.8794,74.2
456.9778,24.8
457.0387,51.2
457.2232,32.3
457.5799,67
457.598,57
457.6293,48.1
457.8418,54.5
458.1348,48
458.1966,56.3
458.2008,62.7
458.2078,68.2
458.3399,33.7
458.8186,40.5
458.8411,20.5
458.8676,172.1
459.3998,37.6
459.9368,51.3
460.0683,27.1
460.1618,35.2
460.6599,47
460.7275,34.4
460.8297,53.2
460.8511,110.6
460.8651,86.4
460.9715,18.4
460.9979,20.3
461.0896,28.4
461.2463,33.1
461.4304,50
461.5658,35.5
461.6125,57
461.823,50.5
461.9648,293.4
462.2105,44.5
462.2543,43.9
462.4689,90.3
462.5156,18.9
462.879,62.7
462.905,52.6
462.9501,68.8
462.9711,17
463.401,50.5
463.9092,40.1
463.9937,37.3
464.2563,23.8
464.9371,73.7
464.9726,105.9
465.2439,42.2
465.3274,38.2
465.3765,49.3
465.5057,31.1
465.5626,23.4
465.6981,78.3
465.776,50.2
466.0104,37.3
466.0212,45.5
466.0585,24.9
466.1117,42.1
466.2576,65.3
466.3906,67.6
466.7457,46.4
466.7515,36.6
466.8668,35.3
466.9255,40.6
466.9693,30.5
467.2274,58.4
467.4957,46.3
467.6878,44.5
467.7904,32
468.1192,42.4
468.199,45.6
468.2126,44.3
468.4268,50.8
468.6536,52.9
468.8523,43
468.8964,853.8
468.9638,32
468.9811,59.8
469.0945,45.6
469.34,41.1
469.4861,35.6
469.5552,56.8
469.7483,32.4
469.9858,44.2
470.2305,41.9
470.2854,17.2
470.3163,57.2
470.4728,31.7
470.768,24.1
470.8646,63.5
471.0561,63.5
471.2088,46.4
471.2704,31.4
471.8651,44.5
471.9311,74.7
472.1478,41.9
472.2959,73.1
472.344,38.7
472.6114,44.8
472.7884,51.4
472.8036,104.3
472.8265,205.7
472.8377,43.1
472.9347,34.5
472.9633,20
473.1363,37.9
473.3656,41.3
473.61,67.3
473.6302,45.8
473.7503,55.6
473.8232,33.9
474.0396,54.6
474.0785,44.3
474.2713,47.6
474.3644,34.1
474.5464,28.1
474.5759,55.1
474.6279,46.3
474.8174,41.2
474.8422,46.3
474.9893,54.6
475.0752,50.1
475.2329,61.8
475.252,70.9
475.373,55.1
475.387,40.3
475.5516,41.5
475.7528,87.5
475.8199,50.5
476.0415,41.8
476.3295,47.6
476.4173,37.4
476.5127,44.2
476.7009,41.8
476.8049,72.9
476.9271,43.4
476.9526,34.3
477.309,31.4
477.3413,37.6
477.8339,84.5
478.0718,53.6
478.2518,40.9
478.2671,47.8
478.7387,63.3
478.816,62.9
478.8391,48.8
478.9556,49.4
479.2235,29.6
479.2708,63.3
479.7814,69.3
479.9697,360.8
480.0299,52.3
480.1721,52.3
480.2625,60.3
480.3354,67.1
480.5752,44.4
480.7321,33
480.8706,19
480.9703,47.4
480.9875,48.7
481.1007,65.2
481.282,74.6
481.3161,40.5
481.358,40.1
481.6477,48.4
481.9731,45.6
482.2244,60.4
482.2705,35.2
482.3428,35
482.5166,33.6
482.716,42.8
482.8126,52.6
482.8301,113.1
482.9694,38
483.07,51.5
483.5925,34.9
483.6319,38.4
483.9254,44.3
483.947,75.9
484.0866,32
484.0956,49.7
484.2063,38.5
484.259,52.4
484.3221,44.3
484.4371,42.2
484.49,37.7
484.524,37.1
484.8703,220.9
484.8942,39.6
484.9618,29.7
484.987,43.7
485.079,34.9
485.1932,23.4
485.2524,99.6
485.4844,80.2
485.4939,56.5
485.9946,35.8
486.013,56.9
486.1362,53.6
486.1961,59.8
486.4086,45
486.598,36.6
486.7319,81.4
486.8247,45.2
486.937,80.4
487.4441,76.1
487.9452,42.4
488.0755,70
488.1174,37.8
488.4168,44.1
488.4218,48.3
488.8177,132.8
488.8373,95.5
488.8499,65.3
489.1034,58.7
489.1542,47.6
489.2075,213.2
489.2388,106.2
489.2681,36.7
489.2898,38.5
489.3478,58.7
489.3869,76.4
489.429,55.4
489.5161,66
489.5669,43
489.6647,76.1
489.7475,55.8
489.8075,52.5
489.9028,42.9
489.9968,77.1
490.0479,46.6
490.1641,49.8
490.2184,62.8
490.2806,67.7
490.3039,48.3
490.3679,45.8
490.4445,49.6
490.52,30.5
490.5437,41.4
490.6961,37.9
490.802,139.1
490.8318,19.8
490.8982,115.8
491.1604,75.7
491.3037,45.8
491.3987,37.3
491.5907,57.6
491.809,50.2
491.8542,62.2
492.0293,36.7
492.2125,33.3
492.2594,47.4
492.3187,44.5
492.3544,45.5
492.4454,38.1
492.762,37.5
492.8958,41.3
492.9151,69.4
493.1543,41
493.2913,48.7
493.452,53
493.5388,41.5
493.9625,29.7
494.1115,70.8
494.2607,47.9
494.2955,44.5
494.3779,40.6
494.4434,47.8
494.4956,77.7
494.7706,40.6
494.7745,42.1
494.9696,329.3
495.2771,34
495.6328,39.6
495.6603,43
496.2194,35.1
496.2559,46.2
496.4323,42.6
496.522,45.4
496.5424,32.4
496.588,36.2
496.6014,32.4
496.7766,46
497.0473,34.3
497.2126,24.5
497.631,62.3
497.6543,58.9
497.6656,44.2
497.7168,59.5
497.734,48.1
497.808,31.4
498.048,44
498.2381,60.5
498.2552,49.4
498.6402,46.8
498.6664,41.3
498.7383,38.7
498.801,70.8
498.826,32.1
499.4116,40.8
499.728,42.9
499.8276,26.6
499.9744,55.3
500.262,40.4
500.3105,57.1
500.6894,33.9
500.7788,24.9
500.8205,36.4
501.3672,74.2
501.491,32
502.2273,38.5
502.3262,48
502.4686,42.8
502.6525,46.1
502.7103,42.3
502.7776,48.2
503.0696,50.1
503.226,81.6
503.6965,43.9
503.929,24.6
503.9559,34.4
504.1107,84
504.2019,35.2
504.4181,55.1
504.4983,47.8
505.1082,60.3
505.2436,44.6
505.3077,46.9
505.3458,44.4
505.4387,46.1
505.6555,88.7
505.7215,54.3
505.7808,76.2
505.8234,39.7
506.0774,50.4
506.2403,35.3
506.26,41.5
506.4602,37.2
506.7459,19.8
506.828,45.3
506.8721,69
507.6503,52.4
507.8815,36.1
507.9676,46.9
508.2388,46.6
508.7579,41.8
509.0483,55.3
509.2064,41
509.2744,37
509.2922,95.8
509.3264,61.9
509.3439,45.9
509.6582,71.2
510.0309,55.7
510.2261,19.7
510.3106,29.2
510.4967,24.9
510.5727,41.3
510.7796,42.2
510.835,49.9
510.8822,131.3
510.9057,40
510.925,39.9
511.262,26.9
511.2874,101.3
511.2985,27.9
511.4018,44.1
511.6219,73
511.7833,54.9
512.0135,57.5
512.2126,26.7
512.23,46.9
512.3132,25.4
512.4702,89.4
512.5006,36.5
512.6366,42.6
512.7799,60.7
512.8157,27.2
512.8331,91.1
512.9118,44.7
513.1528,31.2
513.2828,69.8
513.4098,45.3
513.5945,67.7
513.8702,38.6
513.8932,40.1
514.2194,60.5
514.7575,45.9
514.7706,29.8
514.8937,207.5
515.2911,53.9
515.3159,34.6
515.4302,18.9
515.5428,42
515.8173,25.1
516.2178,39
516.2703,49.1
516.4833,56.7
516.6317,82
516.8374,35.1
516.9496,48.4
517.0386,34.3
517.1279,36.9
517.2133,93.1
517.2455,42.5
517.2737,103.1
517.3768,18.3
517.8119,34.4
518.0654,43.2
518.1003,37.6
518.2741,34.5
518.7944,49.2
518.8009,39.4
518.8069,42.1
518.8238,36
518.9582,74.1
519.034,69.1
519.319,45.4
519.3479,37.7
519.4688,41
519.5616,72.4
519.6164,34.5
519.8851,49.6
519.9357,40.1
520.0499,59.2
520.1668,43.9
520.6329,43.3
520.7868,36.5
520.9096,666.8
520.9254,78.4
521.155,38.7
521.3616,18.8
521.4175,52.4
521.6296,38.6
521.7349,32.6
521.7867,67.2
521.9139,57.1
521.9848,61.5
522.0551,29.4
522.259,71.7
522.2802,35.4
522.2868,54.1
522.6116,48.3
522.7605,38.7
522.8035,29.4
522.9391,39.9
522.9738,106
523.0637,45.4
523.4356,19.7
523.4473,46.3
523.78,72.2
523.8296,40
523.8459,40.3
523.8807,108
524.138,70.5
524.4788,49.4
524.7822,46.5
524.7998,26.2
524.8984,25.7
525.0167,40
525.0638,27.2
525.0907,33.2
525.2884,66.1
525.4149,33.3
525.4547,43
525.7531,49.1
525.8686,81.8
525.908,34.1
525.9849,65.1
526.0279,65.4
526.2227,46.5
526.2364,41.4
526.4025,53.3
526.4214,50.8
526.5159,51.3
526.7033,39.4
526.7198,51.6
526.7646,37.9
526.784,36.1
526.8171,127.1
526.855,157.7
527.1518,67
527.2706,39.4
527.3774,51.3
527.7602,38.3
527.849,34.1
527.936,37.1
527.9796,45.8
528.1794,54.4
528.6069,40.3
528.6734,55.8
528.8065,160.2
528.8545,33.6
528.8698,35.2
529.1063,42.5
529.323,31.2
529.4918,17.7
529.6261,47
529.8178,31.6
529.9535,77.4
530.0371,36.9
530.0942,41.9
530.112,39.3
530.1808,47.3
530.2069,21.8
530.3779,37.9
530.6738,51.2
530.7016,40.4
530.7213,51.2
530.7696,48.9
530.8448,61
530.8677,53.4
530.9499,42.7
530.9832,59.8
531.2009,103
531.2787,45.8
531.3632,51
531.4958,31.9
531.563,35.1
531.6202,165.7
531.8516,23.7
532.0372,30.9
532.2076,24.4
532.2706,31.6
532.2865,40.9
532.307,20.9
532.5249,52.5
533.0099,38.6
533.0787,63.6
533.1727,28.3
533.2583,40.6
533.2942,53.1
533.5829,43.3
533.6566,32.2
533.7869,70.1
533.9892,49.1
534.0578,64
534.2224,39.3
534.2286,39.1
534.5218,45.3
534.7435,32.4
534.7643,40.3
534.8466,26.6
535.2571,75
535.4694,49
535.5994,33.8
535.7747,35.5
535.8358,18.8
535.9631,57
536.1706,44.9
536.3891,56.9
536.4087,37.5
536.5077,39
536.787,78.8
536.8836,581
536.8975,61.7
536.9394,42.6
537.0434,35.6
537.2639,38.6
537.2686,44
537.3542,66.4
537.5614,72.8
537.5837,41.1
538.7111,58.7
538.7872,42.5
538.8704,39.8
539.1634,47.6
539.2038,47.4
539.2621,45.7
539.3541,48.7
539.5059,33.8
539.607,59.5
539.6612,20.5
539.7221,30.3
539.7782,42.2
539.7828,47.8
539.7932,117.4
540.3314,60
540.4556,62.4
540.7682,78.9
540.7838,107.3
540.8055,48.9
540.8414,26.1
540.9974,91.6
541.0235,44.2
541.1216,18
541.1685,26
541.2232,58.4
541.2413,46.5
541.3334,20.3
541.4165,17.4
542.1496,36
542.1853,53.6
542.3444,73.6
542.5402,53.5
542.6686,32.6
542.691,18.2
542.7911,44.8
542.831,46.8
543.1928,18
543.2723,37.4
543.299,74.8
543.5098,117.3
543.5415,64.2
543.7835,39.8
543.9089,35.5
543.9608,61.2
544.0023,35.4
544.0588,31.5
544.2558,50.8
544.5566,60.4
544.7839,130.9
544.9657,195.1
545.2805,43.8
545.3006,23.4
545.3986,56.1
545.4907,33.8
545.579,43.1
545.8328,73.3
546.0645,69.2
546.0761,36.3
546.225,34.1
546.2764,37.2
546.3115,22.4
546.7923,58
546.9804,25.7
547.1409,55.3
547.1818,49
547.1953,20.5
547.3024,63.9
547.3889,36.6
547.506,40.1
547.7078,36.4
547.7497,35.6
547.9568,70.3
547.974,39.6
548.2152,65.2
548.2712,137
548.3075,33.5
548.6298,42.2
548.671,60.4
548.8596,38
549.1727,79.1
549.2001,40.9
549.2265,30.8
549.2986,68.1
549.373,37.1
549.5894,38.8
549.6457,46.4
549.9076,49.9
549.9579,77.8
550.0673,46
550.2595,93.7
550.6771,36.6
550.7667,38.8
550.7879,44.7
550.977,34.2
551.1962,50.3
551.221,32.4
551.259,39.5
551.388,61.9
551.9366,47.6
552.2307,32.6
552.2767,58.3
552.3979,62.2
552.4837,53
552.6074,46.5
552.7393,17.9
552.7625,52.2
552.7782,39.8
552.8432,60.4
552.8582,160.9
553.1931,55.6
553.2475,71.2
553.2622,48.4
553.5226,47
553.5397,63.7
553.8918,57.9
554.2328,46.9
554.4068,33.7
555.0388,36.7
555.0803,41.1
555.1827,37.6
555.2298,61
555.2801,73.8
555.3222,40.9
555.3789,69.5
555.5148,50.2
555.7066,77.4
555.7588,42.8
555.7971,48.5
555.9505,35.1
555.9756,31.6
556.5297,35.6
557.235,30.5
557.5687,45
557.746,51.5
557.9262,61
558.0347,70.8
558.0862,39.9
558.4526,37.3
558.7158,37.8
558.7716,44.7
558.8021,101.1
558.8876,59.1
559.1233,33.3
559.2345,42
559.7413,58
560.0032,50.7
560.1087,35.5
560.2459,33.3
560.2818,76.1
560.3332,42.5
560.6651,59.7
561.4031,56.6
561.5958,35.9
561.7198,64.1
561.7852,57.8
561.847,75.6
562.0534,40.8
562.2529,41.7
562.5728,73.1
562.7868,37.3
563.0755,49.9
563.132,40.6
563.2203,91.7
563.4717,49
563.9301,23.6
564.2715,50.7
564.3736,38.6
564.5703,39.4
564.8978,22.9
565.1327,33.2
565.1695,48
565.3639,52.1
565.4539,37.7
565.4982,48.9
566.3103,80.1
566.4274,36.2
567.031,38.4
567.5302,71.4
567.6554,72.5
567.6854,37
567.7949,38.6
568.0775,60.9
568.1624,36.5
568.3452,45.2
568.5649,59.8
568.812,73.6
568.9555,188
569.1594,45.4
569.4023,47.3
569.5392,33.6
569.7105,33.5
569.7924,73.9
570.0831,32.9
570.2749,71.4
570.3734,41.7
570.6522,39.7
570.7749,37.2
570.9943,37.9
571.2468,35.7
571.4147,39.2
571.6807,30.3
571.8966,52.5
571.9627,42.7
571.9761,85.5
572.2762,40.1
572.6278,17.7
572.8626,49.6
572.9312,43.9
573.3283,51.5
573.3641,54.7
573.3773,49.7
573.5959,68.6
573.815,36.9
574.013,28.6
574.0337,29.2
574.2008,62.3
574.7539,46.9
574.8532,54.8
574.9182,55.3
574.961,91
575.2534,58.7
575.4592,31.3
575.7227,52.8
575.8021,52.2
576.0574,64.2
576.2762,19.3
576.8283,46
576.844,31.7
577.1062,43
577.2702,49.2
577.3288,40.3
577.4924,80.1
577.697,52.2
578.0731,46
578.0889,48.9
578.7164,58.6
578.769,39.9
578.8701,60.4
579.5726,28.5
579.9911,38.3
580.2024,94
580.2928,51
580.3414,76.5
580.6036,41.2
580.7653,32.2
580.7813,91.2
580.81,27.8
580.8661,53.9
580.9203,52.6
581.3548,71.3
581.5453,44.7
581.5989,19.3
581.6544,41.4
581.7353,71.9
581.7941,40.7
582.0422,49.5
582.0577,64.4
582.0805,44
582.1049,45.5
582.1336,45.6
582.1816,83.4
582.1956,46.5
582.2129,63.6
582.2309,82.7
582.2385,71.6
582.257,149.6
582.2778,158.5
582.3059,76.1
582.3127,65.2
582.3176,56.6
582.3299,174.1
582.3664,41.9
582.3843,53.9
582.4763,35.2
582.6337,39.8
582.7923,52.4
582.7963,52.2
582.8039,53.3
582.856,19.5
582.8805,69
583.0993,67.3
583.2486,33.2
583.3186,38
583.4675,35.7
583.6971,69.4
583.7081,97.3
583.7407,49.1
583.7796,103.6
583.8088,81.2
583.9896,46.6
584.0327,47.5
584.3301,45
584.6698,52
584.7554,38.8
584.7627,60.8
584.9792,57.1
585.0279,38.1
585.1327,34
585.3566,42.9
585.5463,39.3
585.7008,33
586.1448,118.8
586.6282,48.3
586.7737,53.3
586.8004,95.2
586.9351,41.6
586.9945,68.6
587.0421,37.4
587.2244,40.9
587.299,42.1
587.362,50.8
587.609,60.3
587.6509,35
587.8183,60.1
588.2064,51.5
588.2501,36.6
588.7604,42.5
588.782,49
588.8973,379.9
589.0552,45.4
589.3162,35.4
589.9283,42
589.9966,62.6
590.2328,37.8
590.4194,37.4
590.4501,39.2
590.485,50.6
590.6729,52
590.7285,46.8
591.0739,80.3
591.3488,48.6
591.449,51.9
591.601,49.2
591.7935,34.3
591.8353,41.7
591.9646,17.1
592.1822,35.1
592.5033,67.1
592.6904,66.6
592.9944,59.5
593.0408,45.2
593.2797,33.5
593.8768,39.4
593.9551,238.8
594.1271,40.8
594.7728,51.6
594.8434,76.1
594.9639,203.3
594.9854,19
595.2258,55.5
595.2825,25.4
595.3024,46.2
595.4127,37.5
595.5707,63.3
595.7887,65.4
595.937,78.2
595.9657,59.8
596.2681,68
596.3141,37.2
596.8007,16.4
596.837,41.4
596.881,40.3
596.9569,178.5
597.0209,51.2
597.1606,91.2
597.4144,48.2
598.0018,38.8
598.1789,41.7
598.4514,73.1
598.7158,41.2
598.7787,43.2
598.8559,62.8
598.8767,44.1
599.2814,33.7
599.3493,37.2
599.8562,50.9
600.1442,31.3
600.1624,48
600.2281,91.4
600.2629,44.6
600.3325,57.6
600.3844,34.6
600.4,47.6
600.4365,27.7
600.6092,37.1
600.6213,85.3
600.9983,34.1
601.0488,74.9
601.1634,37.1
601.3247,24.9
601.7921,38.1
601.8486,39.7
601.9156,75.4
602.0895,39.7
602.2389,37.4
602.6222,44.3
602.7082,43.8
603.9977,61.3
604.1095,52.3
604.4371,47.8
604.8714,298.6
605.0215,89.6
605.129,44.2
605.2669,53.8
605.5359,70.2
605.5484,47.6
605.7458,46
605.8866,69.1
606.0447,51.7
606.2939,36.2
606.4821,44.9
606.6509,68.7
607.1197,49.8
607.7055,41.6
607.7272,54.2
607.7609,44.3
607.9087,39
608.1577,36.3
608.5396,50.6
608.6225,43.9
609.6746,70.8
609.773,37.9
609.8748,45.1
609.9774,47.1
610.1044,42.9
610.4052,58.3
610.4764,73.3
610.5798,77.2
610.662,36.2
610.7316,34.1
610.7554,52.2
611.2176,39.4
611.7766,36.5
612.0924,41.5
612.2544,32.5
612.3079,20.3
612.6195,37.7
612.8004,57.9
613.2576,50.5
613.4579,34.1
613.8426,50.9
613.8471,58.7
614.2027,24.8
614.2927,57.6
614.4543,53.3
614.667,58.5
615.7563,41.1
615.7898,54.1
615.8511,53.3
615.9415,66.4
616.4505,51.2
616.5156,46.8
616.6203,33.7
616.7424,20.3
616.9444,32.2
617.0365,33.5
617.174,42.6
617.2826,37.6
617.6895,47.6
618.1388,58
618.1729,21.7
618.271,49.2
618.6778,110.9
618.7421,69.3
618.8155,40.8
618.9532,528.3
619.1669,35.9
619.8685,41.2
619.8926,44.9
619.9768,37.1
620.4645,29.4
620.6386,39.8
620.7878,32.4
620.8436,109.1
621.1174,68.9
621.3308,39.2
621.9052,34.2
622.0483,36.3
622.4064,60.3
622.9089,30
623.5699,33.5
624.0401,44.6
624.6676,71.9
625.2335,34.7
625.3099,47.9
625.5871,34
625.6423,61.1
625.7481,38.5
625.9174,40.3
625.9222,51.7
625.9274,39.8
625.933,40.1
625.9389,30.2
626.2495,43.3
626.2771,52.6
626.4747,43.4
626.656,47
626.7087,74.7
627.6968,55.3
627.7303,45.5
627.7458,32.7
627.8548,18.8
627.8973,69.7
628.369,33.9
628.3866,67.9
628.467,42
628.7228,43.6
629.2218,39
629.2747,36.3
629.3178,37.9
629.6634,32.4
629.7214,42.4
629.8922,39.3
630.3437,41.7
630.3942,27.5
630.4532,35.3
630.5451,43.9
630.7258,83.5
630.8339,38.6
631.2726,56.6
632.3261,27.7
632.5999,35
632.7387,62.7
632.9643,51.6
633.1289,80.9
633.2292,71.7
633.3204,86.5
633.3354,43.5
633.7437,40.9
634.0399,38.5
634.1232,36.7
634.4141,61.5
634.4695,46.7
634.6306,87.1
634.7452,41.8
634.78,66.2
634.9352,64.5
635.0978,31.3
636.3729,60.7
636.7605,40.8
637.0486,31.4
637.2699,36.8
637.2888,47.4
637.4286,41.8
637.8974,65.3
638.309,60.3
639.3712,74.8
639.4593,50.3
639.9675,39.5
640.2339,56.3
640.2497,51.8
640.3117,72.6
640.5957,78.3
640.6965,26.3
640.7231,50.5
640.7578,51.1
640.8496,41.1
640.9788,37.3
640.9972,68.6
641.2862,44.8
641.3287,43.4
641.851,36
642.3503,35.6
642.8315,62.3
642.848,43.5
643.249,41.8
643.3861,38.2
643.5533,42.6
643.7368,63.6
643.7667,49.3
643.9053,45.6
643.9524,510.6
644.2069,96.4
644.3351,82.3
644.8688,45
644.958,89.3
645.2134,36.8
645.6911,48.7
645.8674,40.2
646.0598,88.2
646.4043,56.2
646.9534,27.8
648.1823,81.1
648.3607,65.2
648.3692,66.4
648.5064,45
648.5407,40
648.7067,38
649.3345,26.4
649.3574,36
649.3761,37
649.6199,33.1
649.6939,19.9
649.7569,38.7
650.0061,30.7
650.3282,43.1
650.3425,40.8
650.7133,39.9
650.7883,109.8
651.0784,52
651.4333,44.3
651.5796,38.3
651.7402,51.7
651.9604,23.8
652.4145,44.9
652.7378,100.6
653.1527,36.2
653.289,49.7
653.3804,35.7
654.071,77.3
654.3739,44.6
654.4019,47
654.4256,66.9
654.4311,65.6
654.4379,54.9
654.5539,31.2
655.0238,31.7
655.1569,56.1
655.2652,37
655.3241,41.9
655.3416,75
655.5907,46.4
656.0541,45.5
656.2088,61.9
656.2421,23
656.735,37.7
656.8848,167.1
657.011,57.5
657.1068,68.8
657.2165,41.7
657.388,38.2
657.5417,42.9
657.5893,43.9
657.6123,52.5
657.6949,70.1
657.7645,43.1
657.9277,61.2
658.4019,68.9
658.4451,54.4
658.6969,65.4
658.78,33.3
658.7894,35.1
658.9345,45.3
658.995,35.9
659.7639,42.4
659.9577,85
660.0914,55.7
660.1888,61.4
660.3431,43.8
660.6342,32.3
660.7728,39.4
660.8822,44
661.0013,38.6
661.096,38.8
661.2471,41.1
661.2541,45.2
661.5083,25.8
661.965,66.5
662.2346,66
662.7406,34.8
662.8305,95.8
663.2587,85.7
663.3467,26.9
663.4519,37.2
663.4998,45
664.2516,41.1
664.7554,32.6
665.3732,34.8
665.4693,43.2
665.577,67.7
665.6743,43.8
665.7818,45.2
666.0236,38.3
666.1322,34.7
666.8079,53.2
666.9142,30.8
667.2963,59.4
667.6105,49.3
667.9549,26.3
668.0327,59.3
668.1775,60.4
668.3077,40.5
668.6866,30.8
668.9493,324
669.1645,67.8
669.4525,41.6
669.4769,37.9
669.6111,39.7
670.2354,45
670.2962,37.6
670.4051,36
670.4676,60
670.878,37.2
671.1523,52.8
671.3186,36.9
671.474,61.8
671.6847,73
671.8626,27.1
672.7699,46.3
672.859,135.4
672.9959,44.4
673.2919,39.7
673.3114,43.1
673.3743,42.3
673.4099,43.9
673.5988,80.8
673.6507,70.3
673.7746,56.4
673.8146,64.2
674.1332,24.4
674.1885,24.9
674.666,19.6
674.9505,97.6
675.2298,35.6
675.3368,49.2
675.4407,33
676.1908,34.7
676.3202,52.7
676.5321,34.4
676.6502,23.4
676.725,30.8
676.7753,41.6
676.9556,46.7
677.0056,33.3
677.1759,36
677.3152,38.7
677.4883,57.1
677.5811,48
677.8948,70.3
678.3844,71.2
678.4774,47.2
679.0666,35
679.2092,55.6
679.2464,91
679.3274,36.9
679.4499,49.9
679.7206,44.6
679.7859,42
679.936,49.9
680.2319,66.4
680.4946,51.3
680.5557,32
680.6803,64.3
680.796,37.5
681.0654,66.2
681.1566,79.6
681.2811,41.3
681.3948,58.1
681.6047,79.1
681.7031,78
682.1778,51.3
682.202,20.7
682.4906,20.2
682.5746,57.9
682.7976,35.2
683.0048,54.4
684.1167,34.1
684.4036,121.8
684.5598,34.1
684.6582,37.7
684.7113,37.6
685.2708,51.4
685.3316,29.3
685.3881,34
685.4645,56.1
685.5213,43.9
685.6439,24.2
685.7664,78
686.4165,46.6
687.0121,53.4
687.0731,31
687.1589,41.2
687.3356,82.7
687.5265,43.8
687.8189,40.9
688.5588,45.3
689.0699,39.8
689.1828,64
689.2196,53.8
689.4118,37.1
689.9778,72.7
690.0209,45.9
690.2569,35.7
690.4166,52.8
690.6973,37.5
691.2375,40.3
691.2432,39.2
691.5983,42.7
691.7551,42.7
691.7694,50.5
691.8408,39.4
691.9073,40.9
692.0272,25.1
692.1166,38.1
692.217,37.9
692.3208,47.1
692.6788,76.2
693.5307,46.2
693.8965,42.9
693.9485,138.2
693.9638,34.4
694.1809,75.4
694.3125,38.4
694.4541,45.4
694.6643,39.3
694.7102,49.3
694.876,36.9
694.9565,68.8
694.9667,41.6
695.13,52.4
695.1872,43.4
695.4357,36.7
695.7242,64.1
695.9146,53.1
696.0779,56.2
696.2938,29
696.5436,44.6
696.7337,81.1
697.4082,39.3
697.5198,39.3
698.1183,47.8
698.1851,35.3
698.5383,62.4
698.6235,80
698.6656,43.1
698.9551,33.2
699.3324,35.9
699.5213,30.7
699.5288,44.8
699.536,45.1
699.7421,57.1
699.9508,51.1
700.0494,95
700.2732,40.6
700.449,36.8
700.7483,19.2
700.9748,49.2
701.0819,37.4
701.1169,55.3
701.1356,41.2
701.6778,49.9
702.0118,73.6
702.0639,38.7
702.3855,35.6
703.4336,53.4
703.5838,72.5
703.6407,34.9
703.9996,124.5
704.1375,91.5
704.4455,33
704.5442,44.1
704.5654,139.9
704.6361,54.4
704.6639,56.5
704.7061,39.3
704.7139,43.3
704.7213,41.1
704.8152,39
704.8911,39.5
705.0695,45.1
705.1667,35.7
705.5448,28.7
706.3949,37.4
706.664,43.3
706.8054,22.9
706.9452,42.4
708.2783,36
708.522,85.9
709.0039,84.5
709.0334,61.2
709.2094,33.5
709.383,39.8
709.4683,68
710.0346,48.7
710.1276,42.3
710.8014,43.7
711.4111,57.3
711.8198,71.4
713.0879,36.2
713.1338,45.6
714.0555,68.1
714.5286,92.2
714.6244,73.9
714.8383,42.1
714.8839,21.2
714.9558,41.1
715.0385,37.2
715.0766,66.3
715.2013,35.5
715.255,22.5
715.5673,79.2
715.6177,20.7
716.1676,45.7
716.3331,41.2
716.3745,85.7
716.7869,44.1
717.1569,42.2
717.5205,41.8
717.5709,20.2
717.6305,40.5
717.7875,65.2
717.8604,90.2
718.3667,49.2
718.5349,40.9
718.9469,44.8
719.1228,29.8
719.2586,66.4
719.3559,50.3
719.4143,27.2
719.5457,51.7
719.6478,51.2
719.7271,105.2
719.987,46.8
720.1988,38.5
720.3524,61.1
720.7976,38.3
720.9296,68.4
721.0497,68.3
721.5651,35.6
721.9806,86
722.1127,85.6
722.3758,38.5
722.3842,39.4
722.9227,67.8
723.3374,43.6
724.1455,38
724.2811,36.1
724.5978,74.3
724.6225,70
724.8217,49.4
725.6046,29.3
725.9387,42.1
726.2392,36.5
726.2637,36.2
726.3464,42
726.381,36.6
726.4031,36.2
727.3953,83.5
727.6085,50.2
727.6566,36.8
727.7886,24.4
728.4255,19.2
729.0086,39.3
729.1358,94.6
729.3137,42.6
729.9171,39.5
730.0536,43.5
730.4071,44.3
730.5355,31.3
730.6115,40.2
731.0815,23.5
731.2111,42.7
731.2674,39.1
731.3491,40.5
731.6261,90.8
731.906,49.4
732.8644,51.9
733.0322,64.7
733.1187,53
733.332,57.9
733.3698,46.2
733.5064,48.5
733.6823,64.8
733.9145,31.1
734.1534,117.5
734.5968,52.7
734.8648,45.1
734.9009,57.5
734.9684,42.2
735.2883,50.1
735.5443,35.9
735.6289,59.9
735.6739,51.1
736.6719,69.8
737.1075,51.3
737.3027,54.2
737.5858,46.9
737.7191,50
737.8817,27.9
738.1236,46.5
738.4154,41.5
738.6088,82.2
738.6444,35.3
738.7257,45.7
738.7344,91.2
738.7417,82.9
738.785,82
738.8442,43.1
739.294,45.9
739.6443,22.3
740.0021,34.5
740.8461,53.9
740.9423,51.5
741.3334,38.5
741.4793,46.3
741.723,45
741.871,23.8
742.7912,73.4
742.8326,21.1
743.1822,43.2
743.3688,44.7
743.4849,53
744.1177,40
744.1658,85.9
744.2467,49.2
744.4074,24.7
744.8408,55.7
745.2541,41.1
746.019,34.9
746.0752,75.8
746.2147,34.1
746.6308,65.5
746.66,58.3
746.7112,44.1
747.3047,55.9
747.5372,52.4
747.7536,52
747.9568,47.2
747.9738,82.1
748.294,35.7
748.3695,37
748.4562,47.7
748.553,35.3
748.723,40.7
748.8034,58.2
749.0098,18.9
749.068,58.4
749.3157,48.1
749.3503,74.1
749.4002,36.1
749.7054,46.9
749.8026,35.7
749.9348,35.6
750.086,64.6
750.2759,22.7
750.3391,58.8
750.7301,28.8
750.8282,44.6
750.8738,43.4
750.9447,51.6
750.9665,110.7
751.0101,40.5
751.0839,62
751.1665,41.9
751.1936,45.4
751.4156,37.9
751.7393,61.9
752.3151,57.3
752.3543,51.8
752.6049,58.3
753.4345,52.5
754.968,46
755.2734,38.3
755.9162,36.6
755.9394,76.2
756.2022,52.5
756.391,62.3
756.4122,54.4
756.4316,44.8
756.5213,55.7
756.6906,46.2
757.0719,67.7
757.8595,17.4
758.0647,258.8
758.3115,86
758.4829,35.8
758.6353,68.4
758.6832,41.8
759.2005,54.8
759.5296,50.3
759.5529,66.3
759.6231,33.6
760.9883,45.6
761.0094,41.6
761.9974,32.4
762.0169,29.6
762.1565,18.2
762.2478,41
762.3099,38.6
762.3871,37.8
762.8278,35.9
762.9854,77.9
763.1753,73.1
763.2845,46
763.3797,56.4
763.5527,42.3
763.8186,106.8
763.8884,27
764.2331,34.1
764.3475,53.6
764.5662,36.8
764.6149,78.2
765.1906,18.3
765.5499,85.5
765.8536,40.3
766.1249,81
766.2289,52.5
766.4353,59.8
766.5259,32.2
766.5708,37.6
766.6054,31.7
766.7945,44.3
766.8819,60.6
767.0774,78.6
767.3364,36.6
767.4252,61.5
768.3353,51.5
768.884,43.3
769.1777,44.7
769.3359,38.8
769.8708,49.2
769.9022,52.4
770.0287,41.7
770.0805,39.2
770.6041,36.3
772.362,65.9
772.6122,46.5
773.3025,28.6
773.9175,28.4
774.1255,36.9
774.8706,29.4
775.2317,69
775.3182,44.7
776.8358,27.9
776.8468,35.1
776.8526,36.1
776.9991,21.4
777.269,41
777.3882,54.7
777.6465,65
777.8829,43.3
777.9336,38.1
778.2537,46.8
778.348,85.7
778.5921,30.9
778.6552,41.6
778.8133,55.3
778.9296,50.3
779.1565,49.4
779.1916,73
779.4368,58.7
779.4984,64.5
779.8348,77.9
779.9945,40.1
780.1148,48.5
780.2337,35.7
781.3515,36.4
781.6145,64.6
781.6426,23.7
781.7304,39.6
781.8363,46.9
782.5272,41.2
782.5608,42
782.9852,58.3
783.0107,44
783.2841,40
783.7052,46.1
783.9587,37
784.7912,116.1
785.3087,36.4
785.6833,28
786.4488,44.4
786.7831,46.3
787.8848,38.4
788.8017,38.8
788.8327,39.4
789.7739,36.9
790.0093,27.6
790.4614,30.6
790.508,47.7
790.5492,52.3
790.5775,57.1
790.9957,36.6
791.4705,59.9
791.5724,40.6
792.0551,56.5
792.7955,81.5
792.8581,47.9
793.1003,34
793.2817,95.8
793.3431,58.1
793.6702,40.2
794.4138,38.7
794.822,42.6
794.8547,67.6
794.8825,39.7
794.9515,40.8
794.9983,56.1
795.1781,86
795.2796,43.1
795.3189,48.4
795.9484,74.8
796.2234,56.8
796.6211,37
796.7525,96.2
797.1018,41.5
797.1499,82.4
797.4754,40.1
797.5746,55.2
797.9049,37.3
798.3399,52.3
798.6015,59.2
798.7111,42.6
799.0481,53.5
799.8333,91.2
799.8851,67.4
799.9558,49.1
800.4577,48.4
800.5546,39.3
800.6939,19.4
801.1239,41.5
801.2623,44.8
801.4704,127.1
801.5054,87.4
801.6511,37.7
801.668,37.6
802.1866,39.5
802.5609,187.3
802.89,25.8
803.0028,59.1
803.3629,33.6
803.5635,132.5
803.8632,43.7
804.5769,61.6
804.7118,74
805.4982,33.1
805.5801,27.3
805.6935,48.6
806.2617,43.2
806.572,56.2
806.7602,49
806.8671,71.4
807.5509,40.6
807.6657,78.2
807.7213,55.5
808.3331,51
808.6575,45.3
809.4922,44.4
809.8268,57.6
810.2535,59.8
810.8505,42.4
811.5595,76.6
811.7008,21.8
811.8117,36.4
811.8947,34.7
811.9547,43.4
813.5539,50.2
814.2206,77
814.552,49.4
814.9017,49.2
815.0065,48.2
815.0672,68.1
815.1198,35.1
815.7002,52
815.7788,41.7
815.8194,49.8
815.9353,36.4
815.9677,68.4
816.2149,40.5
816.3648,49.4
816.7304,41.2
817.0084,63.4
818.0619,48.7
818.1899,46.7
818.4574,20.2
818.483,41.6
818.7779,39.9
819.0618,36.8
820.0673,20
820.7138,37.8
821.32,63.3
821.4624,71.5
821.5738,54.4
821.9035,44.6
822.9543,54.5
823.0655,39.1
823.552,16.7
823.6369,44.9
823.8876,44.9
823.8951,45.6
823.905,33
824.2084,63.2
824.5342,56.5
824.6216,21.5
824.7273,38.8
825.1277,76.4
825.7328,65.1
826.223,43.6
826.5602,91.1
826.8076,54.3
826.8602,66.9
827.2336,67.1
827.2559,44
827.9006,47.8
828.196,56.3
828.2173,35.5
828.2722,60.3
828.4475,42.4
828.7357,20.5
829.0483,30.4
829.9178,69.2
829.969,43.9
830.0531,48.1
830.4413,26.2
830.5948,33.9
830.9389,20.3
830.9875,36.4
831.4207,73
832.375,40
832.3969,62.5
832.7916,33.2
832.9377,47.4
833.4509,31.4
833.5485,40.9
833.8068,41.4
833.9454,76.9
834.2312,52.8
834.892,38.3
835.6443,71.6
835.7829,43.5
836.2839,50.2
836.4386,48.6
836.7008,37.7
836.8733,33.2
836.9497,46.4
837.5897,80
838.2708,52.1
838.8024,43.9
839.8282,48.1
840.1577,36.1
840.2449,48.2
840.3204,19
840.4986,63.3
840.5381,75.8
840.5735,160.5
840.5885,86.6
841.1527,45.6
841.5526,65.8
841.9135,53.2
842.7207,45.6
842.9301,51.4
844.1308,61.3
844.3362,39.3
844.6828,19
845.137,48.1
845.3899,42.5
845.4814,58
846.3685,38.7
846.4669,48.9
846.642,40.3
846.7681,80.8
846.8135,41.2
847.1909,33.8
847.2289,78.7
847.7969,56.4
848.3027,41.3
848.5534,38.4
848.7267,41
848.9447,42
849.0776,44.8
849.2307,43.6
849.3003,52.9
849.382,83.2
849.4932,65.1
849.6474,46
849.775,54.4
849.8385,26
849.9953,142.7
850.1135,44.9
850.1468,61.6
850.2217,34.3
850.6641,41.3
851.1319,109.2
851.2068,43.7
851.2553,51.8
851.3559,55.4
851.4597,137.3
851.4867,40.1
851.6243,34.6
851.6691,72.3
851.7001,78
851.7285,70.8
851.7648,125.5
851.7735,117.9
851.816,198.5
851.8396,185.3
851.8725,212.9
851.981,56.5
852.05,53.2
852.061,50
852.1314,42.4
852.217,108.6
852.4165,50
852.8226,82.5
853.2777,108.9
853.3691,47.2
853.7821,35
853.9702,36.1
854.3627,33.9
854.659,39.9
854.9246,46.7
855.1621,40.7
855.4726,25.2
855.7161,37.2
856.1563,85
856.5301,35.5
856.9112,70.9
857.2207,23
857.4691,44.2
857.6669,46.7
858.0085,36
858.2447,41.8
858.2949,56.2
859.3686,45
860.2217,37.7
861.0895,65.4
861.4128,24.6
861.4425,20.4
861.4568,20.6
861.4656,19.5
861.692,54.7
862.5753,48.6
863.1634,37.3
863.173,47.8
863.1828,30.8
863.681,35.5
864.9521,46.7
865.3468,56.5
865.4451,47
865.7169,43.9
865.9335,37.5
866.1062,45.4
866.254,48.6
866.5026,36.5
867.0528,40.4
867.265,54.5
867.355,39
867.8083,44.5
868.0019,53.9
868.0941,52.9
868.281,29.3
868.4512,39.8
868.8276,33.7
868.9398,46
869.1971,63.7
869.3682,90.5
869.4467,133.7
869.5086,65.1
869.5349,77.9
869.5719,104.8
869.6056,163.1
869.6303,133.7
869.6652,315
869.7106,429.9
869.7637,362.6
869.7936,429.9
869.8133,447.8
869.8349,520.2
869.8886,432.2
869.9085,511.2
869.937,319.7
869.9613,231.9
869.9855,306.4
870.0068,254.9
870.057,197.8
870.0968,86
870.1252,51.5
870.2726,43.1
870.474,84
870.5518,23.3
870.7233,60.9
871.9855,37.4
872.4675,63.8
873.1194,34.6
873.1747,104
873.5432,41.6
873.6388,61
873.9623,38
874.1172,56.3
874.383,59.4
874.4214,52.3
874.5385,41
874.8022,41.7
875.2186,27.6
875.326,27.3
875.8191,43.7
876.4955,49.3
877.0358,48.1
877.4413,39.1
877.8332,34.2
877.9471,38.7
877.9603,41.9
877.9677,43.6
878.1923,52.4
878.3123,56.4
879.1083,63.8
879.2753,59.3
879.3406,34.3
879.3932,21.5
879.8967,41
880.7235,50.7
880.796,34.9
880.8839,25.8
880.9981,56.9
881.0275,25.3
881.544,41.6
881.8358,33
881.8805,77
882.0089,42.8
882.6183,36.6
882.9347,42.5
883.0118,51
883.1595,72.6
883.565,81.4
884.1968,90
884.2299,43.3
884.4141,42.8
884.9405,55.6
885.2078,35.3
885.3517,39.4
885.4137,77.4
885.7654,37.7
886.3787,35
886.7917,76.8
886.8137,50.3
886.9367,52.2
887.0449,25
887.2066,61
888.2565,53
889.6527,35.6
889.7999,38.2
889.9125,60.9
890.0755,39.9
890.2604,17.5
890.34,18.9
890.5781,61.3
891.0517,36
891.1522,89.5
891.7211,42.2
891.928,47.4
891.973,35.8
892.0229,70.2
892.1813,26.9
892.4913,63.7
894.2773,22
894.3159,37.3
894.6037,37.7
894.745,75.1
895.2495,42.9
895.4955,48.9
895.6869,48.9
895.9758,34
896.17,53.1
896.3085,46.8
896.6042,38.2
897.0223,42.8
897.7717,75.9
898.1104,51.3
898.856,39.1
900.3528,18.3
900.5139,65.6
900.9758,41.8
901.0859,70.9
901.3507,67.8
901.4667,62.3
901.7472,46.5
901.8047,53.4
902.7564,57.7
903.115,40.1
903.2363,40.2
903.5656,57.9
903.7316,18.8
904.1778,50.9
904.5745,49.3
904.9773,55
905.3262,51.5
905.4039,33.5
905.4513,52
905.6985,31.3
905.7335,37.3
906.1062,89.5
906.2611,41.1
906.7346,109.1
906.7944,18.6
907.9342,56.4
907.9773,36.9
908.0896,50.2
908.6059,84.6
909.0949,40.5
909.4402,44.9
909.4777,116.6
909.5396,50.1
910.0734,101.3
910.9577,72.1
910.9657,71.6
911.1929,72.3
911.6566,35.4
912.8779,27
912.9124,39.7
913.1962,40.7
913.4213,37.4
914.0861,37.5
914.2088,21.7
915.3428,73.6
915.9856,43.6
916.4016,44.3
916.7239,32.6
916.9042,44.1
917.187,48.6
917.9218,82.3
918.1571,44.5
918.4299,39.9
918.8518,40.4
918.8988,55.1
918.9479,42.3
918.9753,43.1
919.2273,38.9
919.493,57.4
919.952,52
919.9615,50
919.9743,39.5
920.0115,66.1
920.2691,33.2
920.2993,36.4
920.4741,38.6
921.0703,42.2
921.4568,34
921.5953,40.1
921.8618,47.8
922.1644,39.1
922.6878,74.2
922.8592,43.4
923.1028,31.3
924.0812,62.8
924.1353,73.3
924.3496,46.5
924.6239,54.3
925.8011,50.3
925.9994,36.1
926.0639,38.7
926.8159,45.4
926.9015,79.2
927.0323,42.3
927.1825,36.9
927.3855,22.8
927.6384,46.2
928.0254,37.2
928.2384,102.8
928.5157,42.5
928.5427,58
928.6244,40.6
928.7949,45.4
928.9278,49.8
929.3332,42.2
929.3804,53
929.7111,40.8
930.0361,53.4
930.1918,45.4
930.3741,37.5
930.5394,57.9
930.9693,38.4
931.2977,114.1
932.2102,61.9
932.2369,61.4
932.642,26.2
932.758,47
932.7972,49.8
932.9202,38.4
933.724,50.2
934.0733,123.9
934.633,73.4
934.9132,72.6
935.2031,68.2
935.6022,59.5
936.1388,19.8
937.074,20.3
937.4995,70
937.902,33.3
938.4915,45
939.5082,66.2
939.7098,39.5
940.0419,32.6
940.4049,51.1
940.5734,34.4
941.8843,25.4
942.4256,37.7
943.2585,52.7
943.2984,52.1
944.7408,62.4
945.2384,36.6
945.6038,43.4
945.9913,73.4
946.481,52.2
947.3298,38
947.4708,52.5
947.7182,40.5
948.5908,49
948.6369,38.4
948.9767,49.4
949.7333,60
949.8607,68.4
949.9218,34.9
949.9771,149.3
950.1028,29.2
950.2929,33.5
950.9826,75.9
951.1513,61.5
951.2002,40.9
951.5559,39.4
951.5815,88.5
951.7504,53.2
952.0334,48.4
952.1053,93.1
952.3022,34.9
952.3694,42.3
952.5912,48.4
953.1137,39.9
954.0207,119.6
954.0745,39.7
955.9669,59.2
956.0548,74.6
956.0943,41.7
956.1486,67
956.3027,60.7
956.875,144.5
956.979,70.4
957.2145,23
957.6295,89.2
957.8868,28.8
958.1519,48.9
958.4839,20.6
959.083,33.7
959.2899,51.7
959.5989,35.7
959.9739,36.9
960.3936,41.6
961.8994,34.1
961.9882,51.7
962.7398,48.4
962.7645,37.7
962.9189,56.7
963.0823,52.7
963.626,21.1
963.6726,55.8
963.7899,44.2
963.8202,45.3
963.8786,44.1
964.0205,24.9
964.1917,47.4
964.254,39.5
964.6467,92.1
964.8627,52.7
964.9038,101.8
964.9918,19.3
965.1772,62.6
966.1052,39.1
966.5831,59.7
966.7343,42.7
966.8403,29.5
967.3098,35.9
967.467,31.7
967.6365,41.1
967.736,76.1
967.7904,24.6
968.0688,43.4
968.1678,19.4
968.2378,88.3
968.2707,56.5
968.3542,47.2
968.4108,41.6
969.553,45.4
970.0964,61
970.1947,32.2
970.5834,56.8
970.9824,30.9
971.3868,29.2
971.5471,32.4
972.0165,18
972.5555,40.5
972.8584,40.2
972.9537,40.4
973.1595,37.8
973.8251,49.2
973.9978,76.4
975.2515,38.7
975.5757,18.5
977.4399,43.5
978.182,82.5
978.6444,76
978.7323,39.1
978.8544,35.6
979.0908,43.7
979.4614,46.9
980.0949,39.7
980.5552,23.3
980.8224,58.4
980.8984,59
981.3039,32.3
981.6316,75.4
981.7447,48.8
981.9403,59.4
982.4762,33.4
982.6394,55.8
982.9907,42.5
983.3669,37
983.5552,43
983.7389,45.9
983.9797,43
984.0897,33.1
984.1948,36.5
985.1224,45.1
985.8942,47.1
986.9039,58.7
987.2554,65.8
987.8112,48.9
988.0734,36.6
988.7614,49.8
989.0063,51.9
989.0513,46.8
989.2066,61.4
989.322,48.7
989.5756,42.8
990.0739,54.1
991.0537,46.8
991.2292,50.3
991.5181,22.9
991.9255,46
992.6413,52.9
993.0256,38.8
993.4411,70.6
994.1922,48.6
994.3423,34.1
994.5233,41.2
995.185,46.2
995.9973,56.5
996.1113,66.1
996.5723,51.6
997.194,62.9
997.5008,49
997.7724,18.8
998.5839,39.3
998.745,80
998.855,37.4
999.214,40.6
999.7841,43.1
