SPECTRUM - MS,
1409.RAW,
FTMS + p ESI Full ms [50.00-1000.00],
Scan #: 1-40,
RT: 0.01-1.97,
AV: 40,
m/z,Intensity

50.0036,57.7
50.0309,852.3
50.0428,742.4
50.0681,17.6
50.0911,284
50.0944,265.8
50.0998,61.1
50.1051,81
50.1093,87.2
50.1123,156.2
50.1144,456
50.148,42.4
50.1772,102.7
50.1783,44.6
50.1832,150.9
50.1955,94.1
50.2229,174.7
50.2311,168.2
50.2366,285.5
50.2458,68.8
50.248,301.2
50.2536,138.1
50.2625,71.2
50.2674,15.8
50.2689,59.8
50.2768,397.7
50.2779,194.6
50.2962,50.1
50.3048,192.1
50.3278,449.5
50.3517,207
50.3543,270.5
50.3672,187.4
50.3907,508.2
50.394,192.3
50.4011,81.3
50.4017,616.7
50.4022,52.3
50.4061,476.6
50.422,118.6
50.4282,617.6
50.4323,870.9
50.4337,56.3
50.4403,196.7
50.4798,546.6
50.4895,82
50.4979,74.1
50.5003,613.7
50.5208,99.3
50.5283,42.4
50.5351,152.1
50.5465,413.1
50.5637,446.4
50.5835,36.7
50.5843,68.2
50.5859,116.7
50.5999,733
50.6018,186.9
50.6041,57.1
50.6073,622.4
50.6132,397.9
50.6275,52.9
50.6288,193.2
50.6298,169.3
50.6368,268.6
50.6448,86.4
50.6477,35.3
50.653,591.1
50.6573,94.3
50.6618,45.8
50.6912,110.2
50.6963,259.8
50.7401,37.9
50.7417,228.9
50.7489,54
50.7505,68.1
50.7601,237
50.798,121.8
50.8011,42.4
50.8026,317.9
50.8089,81.9
50.8095,51.5
50.8257,70.9
50.8291,99.6
50.8321,69.4
50.8509,84.8
50.8654,443.4
50.8663,154.3
50.8939,16.3
50.9075,61.3
50.9142,47.9
50.9259,124.4
50.9443,90.1
50.949,180.2
50.9534,91.6
50.9648,86
50.981,306.1
50.9922,67.5
51.0015,289.5
51.0021,123.8
51.031,53.5
51.0371,57
51.044,148.9
51.0455,154.2
51.0507,386.9
51.0519,55
51.0526,84.4
51.0561,134.1
51.0665,127.9
51.0691,588.9
51.0853,537.3
51.0895,147.9
51.0982,200.6
51.1104,268.1
51.1213,92.2
51.1411,106.6
51.1431,93.4
51.144,755.7
51.1499,62.4
51.1501,53.7
51.1534,437.9
51.1602,151.5
51.1843,70.8
51.1854,236.7
51.1863,98
51.1891,83.2
51.2058,577.8
51.2089,88.1
51.2185,91.7
51.2266,81.2
51.2446,16.1
51.2607,298.4
51.2643,42.9
51.2894,62.1
51.294,396
51.296,386.5
51.3259,128.4
51.3703,94.6
51.3739,65.8
51.3777,78.4
51.3844,46.6
51.4072,540.6
51.4236,203.9
51.4259,16.5
51.4411,154.3
51.443,432.1
51.4577,101.9
51.4711,293.1
51.4739,329.7
51.4858,54.9
51.4916,36.9
51.4939,59.3
51.5043,84.2
51.5065,218.5
51.5465,52
51.5682,61.3
51.5806,555.2
51.5928,394.5
51.5997,85.9
51.6032,546
51.6093,478.5
51.6097,40.1
51.6432,194.9
51.6461,602
51.6524,541.9
51.6562,92.7
51.6585,82.5
51.6604,399.9
51.6705,67.8
51.6807,86.9
51.6844,603
51.6846,629.3
51.6875,91.6
51.6877,410.7
51.719,504.9
51.7323,69.8
51.7327,239
51.7502,205.5
51.7524,68.8
51.7595,93.2
51.7612,142.6
51.7686,420.5
51.7706,692.3
51.7836,265.8
51.8032,534
51.8095,136.4
51.8206,50.6
51.829,698.8
51.8436,760.5
51.847,163.7
51.8584,649.6
51.8601,93.5
51.8651,40.8
51.8724,421.6
51.8741,722.5
51.9266,90.1
51.9341,71.4
51.9475,144.5
51.9649,345.3
51.9674,59.9
51.9848,77.9
51.9868,420.1
51.9873,17.1
52.0066,64.8
52.011,101.3
52.0216,53
52.0393,291.2
52.0444,382.5
52.0516,16.8
52.0594,81.4
52.0858,123.5
52.0882,77.9
52.0926,134
52.098,50.3
52.101,109.6
52.1144,65.8
52.122,106.5
52.1353,282
52.1376,86.4
52.1396,63.6
52.141,53.5
52.1548,95.6
52.1604,60
52.1636,75.6
52.191,110.8
52.1938,102.5
52.2132,271.7
52.2359,43.6
52.2663,77.2
52.2889,96.7
52.2973,308.9
52.3027,93.9
52.3034,81.2
52.3253,54.8
52.3366,97.2
52.3372,175.4
52.3419,57.2
52.3519,87.8
52.36,753.7
52.3845,324
52.421,413
52.424,16.7
52.4415,509.9
52.449,61.2
52.4613,453.6
52.4799,60
52.491,303.4
52.4948,104.6
52.4976,15.4
52.498,77.7
52.504,88.5
52.5146,246.8
52.525,500.7
52.5485,79
52.5516,57.4
52.566,45.7
52.577,15
52.6059,210.5
52.6118,1110.2
52.6144,50.9
52.621,15.8
52.6291,661
52.6326,55.5
52.6336,99.8
52.6391,230.2
52.6421,17.6
52.6434,851.6
52.6443,44.6
52.6514,112.1
52.6518,16.7
52.6524,188.3
52.672,39.5
52.6745,81.5
52.6978,104.6
52.6985,176.3
52.7128,717.2
52.7173,57.7
52.7198,286.5
52.7241,172.4
52.7252,522.6
52.7286,417.5
52.7299,51.6
52.7538,98.6
52.762,178.2
52.766,417.4
52.7764,51.1
52.7885,411
52.7936,109.8
52.7949,919.3
52.7954,2868.9
52.796,2690.7
52.7963,3900.9
52.7967,2387.5
52.7978,179.5
52.7987,260.6
52.8067,87.8
52.8123,217
52.8156,82.9
52.8295,54.4
52.8306,61.8
52.8316,152.9
52.8579,69.5
52.8867,91.2
52.893,78.8
52.8937,818.8
52.9087,37.5
52.9132,56
52.9158,666.6
52.9224,715.3
52.9251,670.7
52.9339,16.1
52.94,92.5
52.9574,339.9
52.9609,17.6
52.9869,223.3
53.0021,98.6
53.0043,79
53.0182,189.4
53.0312,291.4
53.0432,116.5
53.0519,89.6
53.0753,17.6
53.0764,19.9
53.0906,36.6
53.0934,35.5
53.095,467
53.0961,106.5
53.1016,74.3
53.1038,692.4
53.1137,85.7
53.1179,75.3
53.1206,521.7
53.1276,57.2
53.1457,64.2
53.1595,55.1
53.1791,39.8
53.1924,38.8
53.1986,204.1
53.2014,49.4
53.2051,99.5
53.2278,84
53.2327,39.5
53.2563,116.7
53.2669,426
53.2675,59.2
53.2838,328.4
53.3185,54
53.321,216.2
53.3797,66.8
53.3881,161.3
53.3922,91
53.3971,379.9
53.4045,47.3
53.438,276.4
53.4465,82.7
53.4471,84.4
53.5138,84.8
53.5199,45.2
53.5245,173.4
53.5258,496
53.5581,115
53.5586,435.2
53.5905,42.4
53.5925,105.1
53.6145,186.1
53.6219,607.4
53.6312,610.4
53.6341,192.5
53.6359,156
53.639,267.8
53.6393,318.2
53.6491,95
53.6558,781.7
53.6562,14.7
53.658,638.1
53.6614,103.6
53.6726,173.2
53.692,441.8
53.7018,36
53.7147,531.8
53.7161,75.3
53.7371,66.2
53.7442,52.7
53.7467,83.7
53.7697,43.8
53.7957,224.7
53.8025,62.7
53.8185,318.5
53.8372,196.8
53.8414,420.7
53.8462,908.3
53.8519,172.6
53.875,77.6
53.8779,396.8
53.8824,90.7
53.8858,491.9
53.8973,88.8
53.908,56.5
53.9133,114.9
53.9163,144.5
53.945,435.3
53.9723,62.4
53.9747,78
54.0002,83.5
54.0029,180.7
54.0156,180.4
54.0222,48.8
54.0227,228.7
54.0269,452.6
54.0515,35.3
54.0533,84.4
54.0696,575.9
54.1276,552
54.1322,101.5
54.1326,689.2
54.1355,89.1
54.1449,377.2
54.1453,353.8
54.1571,195
54.1601,161
54.1762,474.7
54.1796,108.3
54.1799,187.8
54.2449,409
54.2503,43.7
54.2597,52.1
54.2675,687.9
54.269,165.5
54.2747,41.6
54.2777,122.6
54.2837,182.5
54.2915,56.6
54.3023,177.1
54.3149,162
54.3171,65.3
54.3209,62.3
54.3281,263
54.3302,70.9
54.34,204.9
54.3505,458.6
54.3536,57.4
54.3648,517.6
54.3879,432.8
54.3896,22.6
54.3916,93.4
54.3922,19.4
54.4189,15.3
54.4232,74.8
54.4248,134.5
54.4321,44.2
54.4336,95.1
54.4366,51.8
54.4415,74.5
54.4634,149.7
54.4704,116.4
54.5052,21
54.5075,56.6
54.5193,18.4
54.5366,164.6
54.5379,58.4
54.5393,207.9
54.5655,784.8
54.5717,15.3
54.5765,428.4
54.5932,94.7
54.5939,131.1
54.6028,611
54.6134,41.1
54.6213,39.2
54.6241,635.5
54.6385,67.1
54.6603,112.5
54.6641,303.9
54.6663,78
54.6751,81.1
54.6786,382.6
54.6984,175.5
54.7045,923.3
54.75,43.5
54.7534,55.3
54.7541,541.4
54.7668,512.3
54.773,524
54.7852,83.9
54.7925,725.9
54.8014,159.2
54.8073,86.1
54.8211,503.8
54.8377,103.7
54.851,79.9
54.8677,138.9
54.8735,399.2
54.8742,16.1
54.8835,119.7
54.8904,490
54.8933,64
54.9012,186.2
54.9017,59.9
54.9086,162.9
54.9233,76.2
54.9388,84.6
54.9593,73.4
54.9611,47.5
54.973,192.1
54.9779,41
54.9937,266.4
54.996,198.6
55.0409,148.6
55.0528,536.3
55.0635,283.7
55.0679,53.9
55.08,94.6
55.0855,509.2
55.0986,131.8
55.1005,57.3
55.1247,506.5
55.1264,199.7
55.1406,90.9
55.1419,46
55.1512,84.4
55.1689,95.3
55.1717,71.7
55.1799,47.5
55.1891,219.5
55.2046,85.5
55.2385,1147.1
55.263,41.9
55.2711,83.9
55.2803,206.5
55.2945,587.9
55.3223,85.3
55.326,336.1
55.3586,374.1
55.401,103.1
55.4016,46.9
55.4035,129.5
55.409,70.6
55.4207,105
55.4217,262.4
55.4359,44.1
55.449,89.9
55.4599,77.1
55.4678,484.1
55.4785,85.5
55.4798,286
55.4828,61.1
55.5026,106.3
55.5086,104.3
55.5087,106.5
55.5199,297.9
55.5238,156.8
55.5244,62.3
55.5426,355.6
55.5645,287.3
55.5829,523.2
55.5867,82.6
55.5946,73.6
55.606,112.2
55.6069,71.6
55.6095,642.4
55.6189,79.4
55.6387,101.7
55.6514,52.7
55.6525,123.3
55.6643,46.8
55.6717,316.1
55.6886,676.1
55.689,466.9
55.7292,406.3
55.7308,47.1
55.7502,76.8
55.7828,389.2
55.7902,164.8
55.7934,52.7
55.7985,677
55.8269,113.4
55.8297,56
55.8306,109.1
55.8481,58.5
55.8573,700.2
55.8814,781.9
55.8915,118.2
55.919,113.1
55.9221,51.3
55.939,92.3
55.9542,171.2
55.9609,446.3
55.9748,320.6
55.9876,424.1
55.9944,118.3
56.0013,40.5
56.0121,219.7
56.0153,105.8
56.0164,48.5
56.0233,94.9
56.0479,107.9
56.0492,60.9
56.0532,210.9
56.0679,51.3
56.0755,80
56.0827,45.3
56.0883,279.5
56.1048,615.6
56.1123,92.8
56.1155,95.8
56.129,94.7
56.1474,140.4
56.1637,15.8
56.1926,576.6
56.206,415
56.2108,76.3
56.2373,241.7
56.2424,773
56.2436,56.5
56.2455,190.2
56.2484,69.5
56.2502,18.6
56.2731,110.2
56.2801,81.7
56.2837,104.2
56.3109,43.3
56.314,76.1
56.3202,71.2
56.3239,223.3
56.353,45.7
56.366,73.2
56.3718,45.2
56.3856,558.5
56.3999,40.4
56.4253,45.2
56.4371,124.4
56.4416,62.7
56.4564,292.1
56.4654,69.4
56.468,20.1
56.4687,720.4
56.4755,112.9
56.4773,529.1
56.4778,65.7
56.4876,76.7
56.4889,522.7
56.4933,87.7
56.5019,45.1
56.5062,71.1
56.5237,47.5
56.5485,86.5
56.5672,741.3
56.5762,326.1
56.5836,173.7
56.5972,286
56.6131,78.8
56.632,40.4
56.6396,169.9
56.6554,54.4
56.6782,49.9
56.7351,540.8
56.74,395.4
56.757,38.6
56.7591,711.4
56.7882,306.4
56.8082,93.7
56.8108,47.3
56.8201,49.8
56.8508,488.3
56.8619,408.8
56.877,52.2
56.898,520.7
56.909,582
56.916,340.5
56.9415,216.9
56.9459,125.9
56.9469,56.4
56.973,16.9
56.9762,751.2
57.0029,513.9
57.0116,19.2
57.0512,496.5
57.0627,644.2
57.0632,59.9
57.073,512.1
57.0986,80.3
57.1521,99.7
57.1543,384.1
57.1551,84.8
57.1622,46.7
57.1772,99.9
57.1804,233.6
57.2032,226.6
57.2343,18.7
57.238,557.8
57.24,53.7
57.2431,587.8
57.2452,61.6
57.2665,421.3
57.2683,116.6
57.2734,43.2
57.3023,784.2
57.3034,41.5
57.3066,66
57.3101,244.3
57.3118,21.7
57.3246,18.5
57.345,91.8
57.3551,52.9
57.3556,413.7
57.3635,147.1
57.3794,57.2
57.3914,60.5
57.3986,96.5
57.4022,865.5
57.4036,178
57.4146,42.2
57.4252,171.2
57.4478,375.6
57.4498,617.2
57.4535,609.7
57.4572,305.3
57.459,213.6
57.4647,563.9
57.4795,85.1
57.4914,95.7
57.4998,171.5
57.5047,41.6
57.5077,56.6
57.5157,316.7
57.5164,49.3
57.5175,426.7
57.5452,164.1
57.5497,548.4
57.5524,54.5
57.5868,85
57.6015,16.8
57.6152,537.7
57.6401,39.8
57.6406,753.6
57.651,545.6
57.7057,95.2
57.7436,113.3
57.7456,100.1
57.7527,786.6
57.7656,194.3
57.7802,545.3
57.8112,52.9
57.8229,72.5
57.8252,43.4
57.8299,16.2
57.836,48.8
57.8422,170.1
57.8426,466.8
57.8757,46.3
57.8861,53.2
57.924,39.5
57.927,69.2
57.934,69.3
57.9374,235.7
57.9388,81.8
57.9602,88.9
57.9855,81.6
57.9975,305.9
58.0159,499.3
58.0168,36.8
58.0208,108.3
58.0244,115.1
58.033,120.4
58.0374,41.3
58.0465,428.5
58.0655,535.1
58.07,51
58.0783,98.6
58.0805,99.4
58.1125,493.4
58.1262,120.8
58.1504,71.7
58.1598,121.2
58.164,50.5
58.1676,472.6
58.1859,198.4
58.1935,60
58.2023,792.5
58.2038,237.3
58.2044,101
58.2061,80.5
58.2153,87.3
58.2281,19.5
58.2323,80.5
58.2393,170.6
58.2575,103.7
58.2581,478.3
58.2748,176.7
58.2972,51.1
58.317,303.9
58.3557,133.3
58.3755,192.6
58.3824,469.8
58.4137,105.2
58.4215,172.3
58.4295,290.6
58.4479,549
58.4495,79
58.4551,354.2
58.4561,49.9
58.4808,510.6
58.486,96.3
58.4983,473.5
58.5,82.7
58.5051,16.8
58.5191,144.8
58.5536,820.1
58.5555,84.3
58.5683,106.2
58.5744,459.6
58.6062,15.5
58.6256,64.7
58.6415,70.9
58.6476,166.6
58.6759,68.9
58.6787,174.4
58.6821,260.9
58.6918,186.9
58.7053,69.7
58.731,61.8
58.7466,345.8
58.757,51.7
58.7594,754.4
58.7617,116.4
58.7651,250.3
58.7773,45.4
58.7839,17.3
58.785,52.1
58.8216,195.1
58.8286,262.6
58.836,98.7
58.8573,474.4
58.8607,45.1
58.8661,99.7
58.8723,177.3
58.8742,213.7
58.8763,170.3
58.9034,172.8
58.911,128.4
58.9156,307.6
58.9489,63
58.9525,274.4
58.9585,499.5
58.9803,83.9
58.9857,180.8
58.9951,77.2
59.0053,38.5
59.0086,41
59.0252,41.1
59.0258,206.7
59.0436,140.5
59.0437,148.8
59.0439,79.2
59.0449,70
59.0806,77.1
59.1074,74.4
59.1318,39.2
59.1421,406.6
59.1523,363.1
59.1602,39.5
59.1657,415.2
59.1696,44.9
59.1952,669.6
59.196,210.6
59.2062,550.3
59.2148,70.4
59.2305,47.2
59.2429,408.8
59.2496,75.7
59.2682,86.9
59.2749,99.5
59.2767,228.5
59.296,283.5
59.3017,696.7
59.3029,294.8
59.3035,72.8
59.3094,48.4
59.3113,142.4
59.3281,154.3
59.3398,64.8
59.3457,79.1
59.3687,385.1
59.3849,397.5
59.3958,171.6
59.3966,50.1
59.4084,86.2
59.418,81.9
59.4215,355.3
59.458,57
59.4631,18.8
59.4698,17.8
59.4761,89.9
59.5008,161.2
59.5114,96.6
59.5209,353.9
59.5229,65.9
59.5231,86.6
59.524,94
59.525,683.1
59.5587,126.8
59.5633,96.7
59.5719,55.8
59.5776,51.8
59.5839,267.3
59.5889,85.7
59.6387,178.5
59.6461,64.4
59.6611,81.1
59.6892,139.3
59.6998,40.9
59.703,162.1
59.7261,97.5
59.737,94.6
59.7522,611.6
59.7645,774.5
59.7736,15.4
59.7751,624.7
59.7775,47.1
59.7792,71.1
59.7894,67.3
59.8106,48
59.8243,15.9
59.837,54.3
59.8589,263.8
59.861,432.7
59.8654,161.7
59.8694,124.3
59.9065,219.4
59.9184,69.7
59.9247,884
59.97,495.4
59.9739,89
59.992,321.7
60.003,74.2
60.0191,48.5
60.0425,52
60.0441,203.4
60.0467,165.7
60.0605,520.7
60.0814,313.5
60.0971,570.2
60.0985,344
60.1113,82.4
60.1275,110
60.1319,39.9
60.1431,82.7
60.1535,665.8
60.1541,112.8
60.1569,106.2
60.1591,651.5
60.174,500.2
60.1943,576.2
60.198,380.3
60.2088,514.1
60.2124,131.8
60.2451,143.8
60.2522,248.4
60.2561,117.3
60.2619,471.7
60.2735,83
60.2824,62.8
60.2933,141
60.3206,417.8
60.3212,146.8
60.328,106.4
60.3481,209.1
60.3662,61.8
60.3688,47.9
60.3877,63.5
60.4006,277.3
60.4193,99.9
60.4293,185.3
60.4341,49.7
60.4375,465.8
60.4423,208.9
60.4594,118.9
60.4706,461.4
60.4904,60
60.4915,536.2
60.5163,135
60.5217,270.6
60.5444,120.4
60.5594,15.4
60.5604,62.8
60.5656,45.6
60.5749,89.6
60.5788,257.1
60.5873,163.1
60.6131,779.8
60.6157,77.8
60.622,50.6
60.6253,436.3
60.6292,82.6
60.6411,101.4
60.6488,54.4
60.6626,133.6
60.6635,15.5
60.6656,551.7
60.6716,54.9
60.6745,405.6
60.6749,18.2
60.6867,435.3
60.6978,232.6
60.723,102.1
60.7341,58.6
60.7383,88.1
60.7424,59.4
60.7475,102.1
60.7616,65.3
60.7673,96.7
60.7685,86.7
60.7749,586.8
60.781,500.7
60.8106,123.6
60.8189,57.1
60.8398,387.1
60.8483,188.1
60.8721,640.4
60.8939,430.4
60.9123,125.5
60.9253,162.2
60.9492,17.8
60.9578,490.8
60.9701,17.5
60.9854,287.4
61.0256,179.1
61.0274,93.3
61.0386,65.3
61.0639,110.1
61.066,38.8
61.0764,825.9
61.0791,166.8
61.1088,494.5
61.1208,111.2
61.1718,43.2
61.2016,48.8
61.2315,698.3
61.2617,86.9
61.2649,79.4
61.2661,75.8
61.2745,68.8
61.2795,65.7
61.2918,249.9
61.2949,270
61.3039,810.7
61.3112,237.4
61.3145,18.9
61.3257,99.3
61.3337,64.2
61.3357,52.4
61.3562,79.8
61.3691,78.8
61.3762,274.2
61.3831,58.6
61.3949,77.4
61.3959,17.1
61.404,192
61.4247,274.9
61.4505,39.9
61.4527,331
61.4579,482.9
61.4626,415
61.4798,60.3
61.5139,45.8
61.5393,102.1
61.542,124.5
61.5483,367.4
61.5529,41.5
61.5711,183.9
61.5745,18.3
61.586,98.4
61.5907,460.2
61.6033,85.6
61.6101,503.8
61.6133,15.8
61.619,16.7
61.6298,433.9
61.6317,76.7
61.6364,248
61.6382,94.5
61.6415,66.5
61.6756,54.6
61.7075,69.6
61.7138,102.2
61.7165,130
61.7289,79.6
61.766,111.2
61.7688,67.7
61.7755,71.4
61.7867,64.9
61.8024,56.3
61.8145,77.3
61.8278,45.2
61.8668,273.5
61.8754,475.9
61.8767,135.3
61.905,61.9
61.9154,92.8
61.9184,67.7
61.9408,47.3
61.9415,332
61.9426,504.2
61.949,89.3
61.9556,18.6
61.9601,76
62.0025,770.3
62.0038,274.4
62.0059,104.6
62.0168,54.2
62.0335,139.6
62.0417,68.5
62.047,72.4
62.055,629.4
62.0579,545.7
62.0687,59.7
62.0705,168.5
62.0969,112.9
62.1033,92.2
62.1087,42.9
62.1265,82.1
62.167,241.6
62.1726,82.1
62.1741,37.3
62.1744,276.5
62.1753,63
62.1829,775.8
62.1854,164.6
62.2096,450
62.2135,536.3
62.2299,77.6
62.2323,187.4
62.2584,174.8
62.2714,80
62.2752,302.3
62.2769,65.7
62.3027,87.5
62.3147,477
62.3223,94.6
62.3425,96.2
62.3445,58.7
62.363,70.2
62.3663,50.4
62.3689,80.4
62.3856,63.1
62.3875,106.7
62.4086,570.4
62.4138,17.1
62.4212,60.8
62.4271,126.6
62.441,727.1
62.446,163.1
62.4514,127.4
62.4552,488.2
62.4646,627
62.4655,348.5
62.4744,285.9
62.476,572.6
62.4931,120.2
62.4946,242.1
62.5001,121.3
62.5041,212.3
62.5069,172.6
62.5118,43.8
62.5155,99.8
62.5378,59.1
62.5426,794.5
62.5449,143.3
62.5592,34.7
62.5722,51.5
62.5821,562.4
62.5869,90.6
62.5988,439.9
62.6598,40.7
62.6964,57.5
62.701,544.3
62.704,16.7
62.7053,142.8
62.7185,48.3
62.7278,107.6
62.7455,711.2
62.7717,18.7
62.7745,18.2
62.7758,327.3
62.782,454.6
62.803,70.7
62.82,546.2
62.8547,312.9
62.859,70.8
62.8954,110.4
62.9064,50.8
62.9149,444
62.9257,62
62.9297,931.7
62.9419,96.9
62.9572,94
62.9682,658.6
62.97,603.1
62.9727,101.5
62.9755,761.2
62.9771,92.4
62.9965,174.4
63.0099,45.5
63.031,200.7
63.0744,235.7
63.0884,93.9
63.091,132.8
63.1018,135.8
63.1031,227.2
63.1054,788.4
63.1252,420.7
63.1328,116.1
63.1337,102.1
63.1398,541.7
63.1475,426.6
63.1602,503.6
63.1652,548.7
63.1804,194.5
63.1879,89.4
63.2012,518
63.2126,531.1
63.2151,370.2
63.2783,103.7
63.2803,86.5
63.2917,196.6
63.2968,718
63.3307,105.9
63.3385,484.9
63.3406,815.4
63.3677,281.8
63.3698,184.2
63.3793,74.3
63.384,99.1
63.3953,173.2
63.3988,94.8
63.4052,176.7
63.4099,44
63.445,88
63.46,182.8
63.466,111.7
63.4742,17.5
63.5039,515.1
63.5069,102.2
63.5108,103.8
63.5112,432.8
63.5148,117.5
63.5277,102.6
63.535,59.6
63.5458,81.7
63.5574,78.2
63.5689,237.9
63.5758,46.5
63.5919,60.4
63.6194,69.5
63.6252,95.2
63.6368,127.6
63.6379,433.7
63.6456,561.5
63.6481,386.8
63.652,294.3
63.6636,71.4
63.6691,264.3
63.693,113.8
63.7181,250.3
63.7235,88.2
63.7508,17.9
63.7533,16.8
63.7658,204.9
63.7683,585.9
63.8263,110.8
63.8334,118.8
63.8337,52.9
63.8465,60.9
63.8474,186
63.8484,64.3
63.8687,152.2
63.8747,17.3
63.8768,48.6
63.8799,131.1
63.8832,110.3
63.8945,69.1
63.9106,97.7
63.915,62.3
63.9215,292.6
63.9496,392.5
63.9735,313.1
63.9759,459.9
63.986,373.9
63.9927,84.4
63.9961,99
64.0195,97
64.0273,99.4
64.0315,71
64.033,208
64.0436,71.5
64.0508,563.3
64.0593,63.5
64.0596,57.4
64.0662,167.6
64.072,40.1
64.0927,319.6
64.1042,60.2
64.1117,65.1
64.1261,102.8
64.1332,344.7
64.1359,53.6
64.1366,306.9
64.1443,89.2
64.1465,481.4
64.1936,46
64.2149,598.2
64.2179,119.2
64.2499,43
64.2571,309.4
64.2615,131.7
64.2835,41.7
64.2907,96.7
64.304,85.3
64.3124,258.4
64.3367,71.7
64.3448,255.9
64.3471,103.6
64.3507,123.7
64.357,59.2
64.3584,306
64.3719,103.4
64.3729,76.3
64.3737,98.8
64.3782,642.5
64.4041,176.6
64.4047,89.4
64.4186,46.5
64.4238,645.2
64.4678,91.7
64.4746,51.5
64.4868,72.7
64.4945,15.8
64.4979,337.2
64.4997,108.5
64.5129,522.6
64.5521,149
64.5635,193.7
64.5664,331
64.5833,97.5
64.5883,47.3
64.6113,245.4
64.6124,41.7
64.6291,327.8
64.6362,305.4
64.656,74.3
64.6573,85.4
64.6608,54.4
64.6655,503.1
64.6666,41.9
64.6696,87.2
64.672,87.2
64.679,499
64.684,95.4
64.6865,42.9
64.6889,676.1
64.6956,287.3
64.7077,103.4
64.7109,132.2
64.7268,85.3
64.7592,693.4
64.7607,17.2
64.7918,39.5
64.795,631.1
64.8103,88.3
64.8141,77.7
64.8428,54.3
64.8738,828.6
64.88,107.6
64.8847,536.7
64.8918,53.3
64.9019,748.4
64.9075,88.7
64.917,77.9
64.9251,242.9
64.9371,61.6
64.9412,490.7
64.9433,50.1
64.9439,18.1
64.9616,732.6
64.9737,56.4
64.9779,80.9
65.0114,138.7
65.0196,328
65.0249,278.1
65.0316,669.4
65.0341,45.3
65.0798,172.8
65.0962,140.5
65.1012,91.4
65.1213,50
65.1236,94.4
65.1288,84
65.15,696.2
65.1508,407.7
65.1528,15.6
65.1547,206.4
65.177,73
65.1851,62.7
65.1873,100.7
65.1991,17.5
65.2653,122.1
65.2707,205.3
65.2714,121.5
65.282,171.3
65.2843,293.4
65.2862,413.2
65.3017,61.5
65.3143,92.6
65.3158,74.7
65.3171,37.9
65.328,108.1
65.3546,50.1
65.3571,142.1
65.3646,130.9
65.3894,99.1
65.4125,92.2
65.4194,120.4
65.4208,181.5
65.4235,118.9
65.4317,104.3
65.4325,86.6
65.4499,92.5
65.4694,56.1
65.4793,241.1
65.4889,76.1
65.5019,175.9
65.525,97.9
65.5272,294.5
65.5508,274.2
65.553,60.8
65.5563,56.9
65.5951,48.7
65.6305,16.8
65.6547,586.7
65.6564,81.7
65.6772,18.5
65.6777,96.4
65.7212,755.1
65.7268,614.7
65.7441,533.7
65.7455,316.7
65.7593,93.2
65.762,41.7
65.7683,408.3
65.7795,88.6
65.7845,451.7
65.7871,137.5
65.7883,144.2
65.807,73.2
65.8105,57.6
65.8192,74.6
65.8371,80.5
65.8442,169.3
65.8483,183.4
65.8503,159.6
65.8511,111.6
65.8533,157.8
65.8669,56.8
65.8685,109.3
65.8711,40.1
65.8794,18.9
65.8891,368.3
65.9145,129.4
65.9153,131.4
65.9318,668.4
65.9594,110.1
66.0329,225.1
66.0751,486.8
66.091,41
66.0928,241.8
66.1064,138.7
66.1418,154.3
66.1521,59.4
66.1686,604.3
66.1799,633
66.1872,499.6
66.1908,421.3
66.2166,493.7
66.2298,264.5
66.2313,59.5
66.2331,75.6
66.2382,45.5
66.2481,473.2
66.2612,80.2
66.2617,795.6
66.2623,61.2
66.2843,439.9
66.3209,83.6
66.3276,581.4
66.3296,65.1
66.3402,306.5
66.3445,103
66.3482,50.7
66.3735,508.3
66.3786,39.1
66.3812,78.3
66.3999,133.3
66.4132,108.3
66.4192,67.8
66.4471,661.5
66.4509,87.4
66.4527,71.3
66.4838,199.1
66.5168,126.5
66.519,597
66.5212,60.1
66.5469,64.4
66.5484,45.9
66.5514,117.5
66.5729,328.8
66.6094,241.2
66.6158,86.1
66.6227,65.4
66.6245,733.4
66.6536,588.8
66.6563,412
66.6607,882
66.6999,62.8
66.7025,355
66.7305,115.8
66.7406,254.4
66.7415,190
66.7533,214.1
66.7666,40.5
66.7778,253.1
66.7869,69.5
66.8267,96.5
66.8307,39.4
66.8327,80.1
66.8348,177.7
66.8361,78
66.8935,103.3
66.8946,614.6
66.9054,635.5
66.9156,628.4
66.9225,40.3
66.9269,50.5
66.9498,80.7
66.9662,55.8
66.9672,639
66.9684,72
66.9836,15.6
66.9889,187.6
66.9954,425.1
66.9988,113.9
67.0106,522.8
67.0269,187.7
67.039,93
67.0396,46.1
67.051,105.3
67.0539,27.7
67.0566,620.7
67.0601,68.3
67.1259,292.1
67.1503,448.2
67.1658,38.2
67.1676,100
67.1702,42.8
67.1846,45.4
67.2016,16.4
67.205,112.8
67.2112,49.1
67.2375,311.5
67.259,807.8
67.2711,82
67.2743,40.8
67.2961,84.6
67.308,154.6
67.3192,19.3
67.3311,131.1
67.3371,479
67.3439,119.3
67.3535,139.3
67.3551,151.1
67.3742,66.2
67.3876,422.3
67.3894,358.1
67.3933,95.1
67.419,18.6
67.4236,43.4
67.4336,232.9
67.4442,96
67.4551,192.6
67.459,84.8
67.4674,204.9
67.4679,87.2
67.4761,257.8
67.4781,71.9
67.4851,166.7
67.497,271.6
67.5018,17.2
67.5056,40.1
67.5104,63.5
67.5282,353.6
67.5556,86
67.558,245
67.573,488.2
67.579,66.9
67.5845,73.9
67.5879,84.6
67.5893,45.1
67.6064,433.4
67.6078,406.8
67.6156,64
67.6203,75.2
67.6272,76.9
67.6322,531.2
67.6341,90
67.6458,44.2
67.6578,17.7
67.6635,457.3
67.6647,72.8
67.6684,93
67.6692,263.4
67.6842,63.6
67.7229,80.3
67.7399,69.3
67.7896,243.8
67.8033,98.5
67.8168,163.8
67.8313,200.7
67.8356,70.9
67.853,779.9
67.8729,54.3
67.8812,16.2
67.8921,206.5
67.9042,97.6
67.9538,137.2
67.9783,42.5
67.9865,575.1
68.0014,550.3
68.0025,62.3
68.0072,356.9
68.0195,164.3
68.0319,63.3
68.0357,275.4
68.0618,453.4
68.0892,48.3
68.1491,84.3
68.1812,424.7
68.1878,15.5
68.1923,612.5
68.1953,557.6
68.1963,466.3
68.1972,61
68.2069,43.1
68.222,123.1
68.2324,164.9
68.2651,67.6
68.2731,129.4
68.3053,99.1
68.3076,60.6
68.3093,765.3
68.3389,54.9
68.3761,504.5
68.4054,88.5
68.4136,76.4
68.4147,504.8
68.421,122.2
68.4432,99.1
68.4495,48.9
68.455,157.8
68.4619,638.4
68.4627,113.1
68.4699,136.7
68.4709,26.6
68.4728,114.9
68.4765,127
68.4861,457.3
68.4914,51.4
68.5053,477.8
68.5353,153.2
68.5477,590.6
68.5556,46.7
68.5867,204.3
68.5901,574.6
68.5911,79.8
68.6024,781.3
68.6186,116
68.6284,198.1
68.6565,41.3
68.6628,54.2
68.6662,89.5
68.6805,95.1
68.6912,437.5
68.6948,765.2
68.7023,65.9
68.7069,462.3
68.7115,46.2
68.7213,116.6
68.7291,82.7
68.7338,691.9
68.7535,71.5
68.7568,43.6
68.8001,365.3
68.8056,52.2
68.8079,118.6
68.8133,177.9
68.818,217.8
68.8201,463.2
68.8442,719.4
68.856,68.5
68.8616,494.8
68.8621,129.2
68.8624,115.7
68.8661,69.9
68.8865,62.9
68.8868,84.2
68.8978,740.9
68.8994,693.3
68.9006,83.1
68.9276,80.6
68.9427,362
68.9612,104.4
68.9952,37.2
69.0048,366.6
69.0166,163.1
69.0231,763.5
69.032,57.2
69.0387,296.3
69.049,560.9
69.1287,90.1
69.147,132.5
69.168,177.9
69.1687,211.3
69.1894,102.2
69.1949,65
69.2006,88.2
69.2093,40.1
69.2316,95.2
69.2481,18.4
69.2712,294.9
69.2809,538.2
69.2842,89.5
69.2923,79
69.2961,100.4
69.3101,68.2
69.3109,70.6
69.3187,608.3
69.3637,71.3
69.3756,105.4
69.4053,548.7
69.4189,53.7
69.4263,85.2
69.4291,184.5
69.4391,136.3
69.4421,84.8
69.4515,61.5
69.456,88.3
69.4566,264.1
69.464,38.8
69.4677,249.4
69.4741,904
69.4905,123.8
69.5034,134.2
69.5255,408
69.5324,110.9
69.5466,50.5
69.5565,49
69.5628,170.5
69.5907,157.2
69.5996,536.7
69.6277,140.2
69.6315,231
69.643,635.1
69.6433,678.4
69.645,167.2
69.6533,58.6
69.6665,142
69.6743,92.9
69.685,93.1
69.6852,83.3
69.7028,49.7
69.7035,108.1
69.7045,89.2
69.7051,188.5
69.7302,149.5
69.7489,281.8
69.7714,184.2
69.7743,344.2
69.7842,177.6
69.7872,426.6
69.7959,630.5
69.8173,483.4
69.8207,559.3
69.8253,160
69.8262,39
69.8281,663.3
69.8373,16.5
69.8669,72.2
69.9033,51.8
69.9174,632.4
69.9252,197.5
69.9497,70
69.9668,48.9
69.9689,127.7
69.9712,115.5
69.9767,120.8
69.9773,857.1
69.9804,184.4
69.9911,18.8
70.0085,95.7
70.0508,90
70.0536,17.3
70.0556,318.1
70.0649,1871.7
70.0707,163.5
70.1145,140.2
70.1439,37
70.1721,100
70.1846,666.1
70.2063,18.6
70.2098,59.5
70.2485,545.9
70.2567,59.6
70.2745,335.2
70.291,436.3
70.3249,146.2
70.3515,58.5
70.3728,47.6
70.3736,109.3
70.3879,93.6
70.3985,52.8
70.4081,52.1
70.4434,272
70.4575,108.8
70.478,123.7
70.4822,159.7
70.4839,58.4
70.4931,100.6
70.5021,99.3
70.5112,482.5
70.5316,85.6
70.5328,373.6
70.5579,403.1
70.5897,74.8
70.5977,80.6
70.6209,104.9
70.6243,56.2
70.6257,363.9
70.6403,92.8
70.6579,41.1
70.6608,58.5
70.6819,336.8
70.7086,45.5
70.7144,896.1
70.7194,725.9
70.7226,562.6
70.7326,53.5
70.747,683.4
70.7497,801.9
70.7523,44.7
70.7684,528.4
70.7934,253.7
70.7949,103.3
70.8002,87.3
70.8204,768
70.828,88.2
70.8404,18.8
70.8575,489
70.8876,525
70.8948,67.5
70.9009,47.5
70.9095,364.8
70.911,17.6
70.9205,431.6
70.9347,286.4
70.9535,425.7
70.9662,473.2
70.968,17.4
71.0177,93.9
71.025,67.3
71.0569,81
71.0643,61.1
71.0784,109.1
71.0905,124.6
71.0988,85.1
71.1072,125
71.1081,428.5
71.1631,170.2
71.1827,408.3
71.1984,46.7
71.2204,20.4
71.248,166
71.2498,54.3
71.2519,53.7
71.2614,337.5
71.2646,40.2
71.2691,489.7
71.2789,16.6
71.2895,63
71.2957,348.2
71.3238,103.2
71.33,187.2
71.3389,706.5
71.3415,527.8
71.3426,23.7
71.361,91
71.3627,168.6
71.3947,553.5
71.4029,830.4
71.426,48.7
71.4462,117.9
71.4492,192.2
71.4517,741.3
71.4602,50.8
71.4928,811.7
71.5149,531.9
71.5213,65.6
71.5325,42.9
71.5411,550
71.5447,891.1
71.551,200
71.5683,48.6
71.573,181.3
71.5819,276.8
71.5871,106.1
71.5906,51.3
71.5915,46
71.6117,16.8
71.6241,86.9
71.6478,86.8
71.6526,1203.3
71.6557,53.5
71.6599,722.9
71.6718,17.7
71.6741,60.3
71.694,41.5
71.7076,435.5
71.7268,717.4
71.7484,16.1
71.7534,157
71.7744,403.8
71.7803,51.7
71.7852,45.8
71.8048,180.5
71.8086,63.4
71.8146,16.4
71.8302,120.3
71.849,111.9
71.8501,88.2
71.8531,337.4
71.8563,46.4
71.8717,452.5
71.8759,366.1
71.8947,182.9
71.9032,492.9
71.9047,107
71.9588,313.1
71.96,19.5
71.9817,71.2
71.9944,47.9
72.0306,82.6
72.0415,681.2
72.042,17.7
72.0598,53.9
72.063,82.5
72.0806,511.2
72.0984,104.3
72.0997,72.3
72.1359,176.6
72.1575,991.6
72.1747,96.4
72.1823,550.7
72.1907,82.6
72.2098,15.8
72.2172,617.2
72.2178,15.7
72.2192,17.7
72.2197,381.8
72.2207,286.3
72.2214,341.6
72.2223,1113
72.2227,1194.8
72.2237,562
72.2249,1438.8
72.226,2511.3
72.2266,3208.5
72.2274,2147.4
72.2286,2575.6
72.2294,2791.2
72.2303,2413.7
72.2314,3196
72.2325,2896.2
72.2336,4176.5
72.2344,2679.5
72.2359,2065.6
72.2366,1680.9
72.237,1735.9
72.2372,1726.1
72.2387,1595.9
72.2403,303.5
72.2414,230.8
72.2423,444.9
72.243,86.2
72.2442,79.9
72.2452,60.4
72.2556,66.9
72.2633,768.9
72.2649,153.6
72.2785,72.3
72.2929,541.8
72.2993,109.1
72.3005,64.5
72.3094,112.7
72.3159,465
72.3282,173.5
72.332,98.6
72.361,45.7
72.3715,402.6
72.3748,84.8
72.3766,644.9
72.3789,789.7
72.3889,145.4
72.3957,101.7
72.4044,745.5
72.4189,404.4
72.4299,54.2
72.4308,201.8
72.4409,131.2
72.4673,239.3
72.4964,16.8
72.5031,305.5
72.5074,552.9
72.5526,45.7
72.574,166.1
72.579,69.1
72.5864,754.1
72.5931,519.3
72.5985,184.3
72.6013,629.5
72.6098,93.5
72.6162,55.2
72.6351,58.3
72.6375,89.8
72.6419,54.5
72.6532,763.4
72.6637,58.6
72.6805,463.9
72.6961,494.8
72.7147,92.5
72.7177,17.4
72.7514,95.7
72.7712,237.8
72.7825,233.8
72.8461,61.7
72.8729,470.7
72.8788,174
72.8862,123
72.9051,73.2
72.9067,60.7
72.9407,268.9
72.9477,53.2
72.9571,79.6
72.9641,48.5
72.968,153.7
72.9855,305.5
73.0087,585.9
73.0104,46.6
73.0127,19.6
73.0175,584.2
73.0207,91.3
73.0228,457.6
73.0254,79.5
73.0751,109.5
73.0983,124.6
73.1073,185
73.133,120.4
73.1336,522.2
73.1475,19.6
73.1904,309
73.2443,192.6
73.2476,71.4
73.2652,70.5
73.2669,599.8
73.2799,43.9
73.2819,48.2
73.2918,104.4
73.2938,52.2
73.3033,104.7
73.3093,363.7
73.3153,105.1
73.32,440.1
73.3252,477.3
73.3306,243.1
73.3378,70.2
73.3467,90.6
73.4224,327.8
73.4324,142.7
73.4346,83.8
73.4355,118
73.4655,432.6
73.4744,89.7
73.4785,248.8
73.4841,323.4
73.4958,483.5
73.5078,79.3
73.5315,629
73.5627,83.6
73.5762,75.1
73.5991,75.1
73.6161,411.3
73.6194,78.4
73.621,76.6
73.6573,56.3
73.6675,418.7
73.6999,522.3
73.728,121.8
73.7852,224.7
73.7874,513.2
73.8008,41.7
73.8077,108.4
73.8232,20.7
73.8406,87.5
73.8425,66.2
73.8666,56.5
73.8679,119.9
73.8691,17.8
73.8943,59.1
73.9122,652.3
73.9326,90.9
73.9338,335.1
73.943,501.9
73.9746,49.6
73.9962,139.6
74.0105,81.6
74.0192,69.1
74.0278,134
74.0392,195
74.0589,94.3
74.0599,6302.1
74.0642,87.8
74.0646,80.6
74.0832,225.6
74.0898,62.3
74.1081,62
74.1399,306.8
74.1616,117.1
74.1701,74.7
74.1714,90.5
74.1871,77.7
74.227,340.3
74.2342,467
74.2394,98.5
74.299,223.3
74.3066,68.9
74.3236,660.3
74.3313,52.3
74.3551,78
74.3562,55.5
74.3574,75.6
74.3659,75.1
74.3678,152.3
74.3735,69.7
74.3781,75.6
74.3954,546.5
74.4075,87.6
74.4229,118.2
74.4251,79.4
74.4637,482.3
74.4724,65.3
74.4801,262.8
74.4808,379.8
74.4957,107
74.5006,113
74.5087,45
74.5176,61.4
74.5666,229.6
74.5808,226.2
74.5879,48.7
74.5913,146.7
74.5954,62.7
74.6476,74
74.6771,435.5
74.6806,73.5
74.6865,718.7
74.6944,591.2
74.7046,331.2
74.7087,298.2
74.7498,767.2
74.7611,153.8
74.7686,399.3
74.7752,115.7
74.7977,635.4
74.7982,239.3
74.8001,115.7
74.8218,438.3
74.8261,50.4
74.833,296
74.8341,65.1
74.8375,53.1
74.8564,92.2
74.8591,79.7
74.8909,40.6
74.8933,18.2
74.895,575.7
74.8963,672.3
74.9044,65.7
74.9053,281.5
74.9211,275.3
74.9228,178.4
74.9274,73
74.9309,59.9
74.9405,60.6
74.9411,45.6
74.997,45.8
75.0082,55.4
75.0131,136.1
75.0452,590.2
75.0549,89.9
75.0598,107.7
75.0639,187.2
75.0655,187.3
75.0728,95.9
75.0952,86
75.0958,345
75.1006,53.9
75.1054,104.3
75.1287,883.2
75.1487,19.2
75.1703,41
75.1949,38.7
75.2245,111.3
75.2336,508.1
75.2428,665.5
75.2694,647.1
75.2923,71.9
75.3153,209.3
75.3174,60.2
75.3281,164
75.3431,347.9
75.3461,77.8
75.3559,104.1
75.3792,77.8
75.3952,423.9
75.4012,216.2
75.4102,77.7
75.4229,63.7
75.4373,303.8
75.4686,17.1
75.4709,15.2
75.5326,214.8
75.561,445.4
75.5667,57.2
75.5698,105
75.5707,693.5
75.5752,67.5
75.5756,42.8
75.5774,495.9
75.5822,94.7
75.5851,58.3
75.5868,870.7
75.5892,96.9
75.6055,45.5
75.6156,18
75.6264,45.4
75.6459,877.8
75.6767,54.3
75.682,392.1
75.6851,51.9
75.7031,274.6
75.7064,49.6
75.7119,171.8
75.7384,474.8
75.7402,38.7
75.7565,245.6
75.7655,63
75.7839,543.3
75.798,167.1
75.822,64.8
75.8366,790
75.8471,62.9
75.8535,319.5
75.8657,706.8
75.8762,56.5
75.8957,175.8
75.8989,260.3
75.9142,87.4
75.9237,548
75.9264,765.9
75.9539,284.3
75.9786,706.7
75.9797,177.1
75.9924,749.5
76.0177,68.8
76.036,206.1
76.0435,158.7
76.047,47.1
76.0601,91.7
76.0638,177.1
76.0848,75.5
76.1116,42.7
76.1253,124.6
76.1415,345.4
76.1771,19.8
76.1908,58
76.1939,81.3
76.1942,94.9
76.1945,84.8
76.1967,501.2
76.205,53.8
76.2193,53
76.2202,48.9
76.228,250.6
76.2432,390.8
76.2579,459.4
76.2738,255.5
76.2796,44.9
76.2865,778
76.2944,18.4
76.3052,18.8
76.3189,57.5
76.3956,178.3
76.4159,666.2
76.4218,200.5
76.426,412.4
76.4455,384.2
76.4631,114.4
76.4751,87.6
76.5019,576.7
76.514,237.1
76.5229,155.4
76.5477,311.7
76.6186,587
76.6523,525.9
76.658,114.1
76.6619,88.3
76.6652,290.3
76.6946,473.1
76.7117,520.4
76.7231,76.3
76.7546,18
76.7668,115.3
76.7694,206.1
76.7737,231.9
76.8041,89.6
76.8196,18.9
76.8315,50.9
76.8374,215
76.8391,958.9
76.844,498
76.8673,52.5
76.8739,87.4
76.8815,425.3
76.8949,524
76.9124,90.5
76.9276,241.5
76.9481,19.3
76.9532,547.3
76.9568,679.8
76.9581,40.5
76.9602,104.6
76.9884,74.1
77.0023,322
77.0033,280.9
77.0323,86.6
77.0368,72.5
77.0384,148280.1
77.0399,23.6
77.0584,49.4
77.0847,82.2
77.1075,56.1
77.1147,129.2
77.124,232.6
77.1601,111.3
77.1766,105.1
77.1911,104.9
77.2031,74.6
77.2406,721
77.2459,102.9
77.264,253.9
77.2672,19
77.2843,240.4
77.2907,131
77.297,81.2
77.3001,50.2
77.3054,139.1
77.3202,57.4
77.3279,625.4
77.3367,203.4
77.3454,114.1
77.3651,76.5
77.367,191.1
77.3691,166.3
77.3717,583.7
77.3853,89.8
77.3888,81.7
77.4037,336.9
77.4437,665
77.4474,285.9
77.4565,52.8
77.4675,242.5
77.4926,297
77.596,68.2
77.626,214.5
77.6415,345.1
77.6508,171.4
77.653,21.1
77.6575,64.4
77.6697,92.1
77.6967,614.1
77.706,223.8
77.7191,467.2
77.7252,117.3
77.7278,80.8
77.7317,125
77.7356,851.2
77.7424,82.9
77.7615,44
77.7634,892.7
77.7898,94.6
77.7982,58.4
77.8084,93.4
77.8148,129.9
77.8459,234.7
77.851,117
77.8628,725.7
77.8665,228.8
77.8897,83
77.9069,174
77.913,105.7
77.953,168.9
78.0045,543.1
78.0091,17.8
78.019,73.3
78.0262,467.6
78.0383,42.5
78.039,695.3
78.0418,5314.3
78.0463,21.2
78.0596,550.6
78.0609,301.9
78.0637,45.9
78.0695,97
78.0724,669
78.0763,701.9
78.0957,97
78.1075,799.6
78.1301,310.3
78.1573,59.1
78.1708,122.7
78.1825,140.2
78.2135,74.2
78.2185,159
78.2206,45.2
78.2467,109.4
78.2545,16
78.2627,101.2
78.2702,62.5
78.271,45.7
78.2746,40.4
78.276,43.2
78.3018,53.5
78.3055,232.5
78.3278,140.5
78.3328,65
78.3428,53.6
78.3521,47.6
78.3541,89.8
78.3611,140.5
78.3679,57.2
78.377,18
78.3995,124.4
78.4672,87.8
78.474,50.8
78.4833,16.9
78.5012,377.9
78.5029,523.3
78.5155,17.7
78.5238,60.7
78.5367,92.6
78.6033,214.3
78.6133,676.4
78.626,100.9
78.6369,43.3
78.6425,45.1
78.6809,539.7
78.7137,223.4
78.7219,82.9
78.735,16.4
78.7901,65.5
78.8029,69.4
78.8215,97.2
78.8425,809.3
78.8441,52.1
78.8513,62.7
78.8715,257.5
78.8783,72
78.9164,842.7
78.9173,103.3
78.934,513.5
78.9404,311
78.9527,363.6
78.9913,650.1
78.9924,306.9
78.9969,37.5
79.0153,271.1
79.0397,44.1
79.0471,127
79.0541,5805.7
79.0678,42
79.0731,52.8
79.0971,334.2
79.1292,37.9
79.1307,58
79.1661,18.5
79.1695,302.7
79.1847,112.6
79.2382,61
79.2606,360.1
79.2887,803.8
79.3225,54.8
79.3252,378.2
79.3287,61.4
79.362,40.9
79.3872,52.4
79.4055,51.4
79.4443,171
79.4665,328.3
79.478,229.3
79.4839,101.5
79.5284,592.7
79.5419,58.2
79.5836,437
79.6388,667.9
79.6517,107
79.6957,755.2
79.7332,49.4
79.7505,639.5
79.7781,95.4
79.8049,109.1
79.8184,118.8
79.8363,73.2
79.8495,674
79.8719,779.7
79.8781,545.4
79.8841,123.2
79.8879,279.4
79.9379,680
79.9587,566.3
79.9799,356.3
79.9832,57.2
79.9982,170.8
80.001,102.5
80.0186,54.9
80.0341,242.6
80.0424,501.7
80.0556,80.1
80.0575,30
80.0657,117.8
80.0699,72.7
80.0736,438.4
80.077,549
80.0888,207.9
80.1156,111.3
80.1197,207.3
80.1506,45.9
80.1602,99.7
80.1616,46.6
80.1953,38.2
80.2254,108.9
80.2265,97.6
80.2356,100
80.2417,184.2
80.2436,44.7
80.2786,43
80.2809,126.7
80.2894,66
80.2923,277.8
80.2954,76.9
80.3101,157.3
80.33,100.9
80.3489,517.7
80.3535,284.9
80.3573,468
80.3675,74.9
80.3753,402.5
80.3783,604.9
80.4131,96.8
80.4135,100
80.4177,86.9
80.4682,46.1
80.4782,99.2
80.4858,458.5
80.4898,149.4
80.5177,726.4
80.5352,55.2
80.5385,115.4
80.6056,105
80.6065,50.6
80.6306,88.1
80.6339,404.3
80.6562,164.5
80.7038,77.2
80.708,187.3
80.7095,206.9
80.7209,61
80.7248,898.4
80.7329,218.9
80.7401,200.9
80.7413,534.3
80.7459,93.7
80.749,47.6
80.766,80
80.7947,195.5
80.8061,638.7
80.8149,41.7
80.8337,107.6
80.8541,122
80.882,52.2
80.8985,135.2
80.9054,96.1
80.9056,88.5
80.921,152.8
80.9253,64.9
80.9424,345.7
80.9477,28364.4
80.9511,204.8
80.953,17.1
80.9558,48.3
80.9642,50.6
80.9706,71.7
80.9811,90.7
80.9828,89.2
80.9946,52.4
81.0374,64
81.0387,101.9
81.0409,80.5
81.0501,98.2
81.0698,3652
81.0864,269.8
81.0902,17
81.1009,188.6
81.1544,1063.7
81.1551,1208.5
81.1564,220.3
81.1574,85.1
81.194,41.1
81.2097,214.7
81.2367,184.1
81.2396,65.5
81.2491,90.6
81.2558,101.8
81.2613,685.7
81.2667,58.2
81.2795,106.2
81.2995,57.7
81.3132,92.7
81.3563,52.2
81.3763,183.4
81.3789,120.7
81.3991,479.1
81.4059,92.5
81.4402,554.3
81.4415,197.8
81.4606,20.6
81.4626,629.8
81.4938,61.9
81.4981,359.6
81.5285,97.2
81.537,160.1
81.5426,668.9
81.5563,286.9
81.5605,266.8
81.5654,94
81.5683,611.7
81.5699,235
81.5713,119.2
81.5823,83.8
81.6317,20.1
81.6341,122.7
81.6397,95.3
81.6501,64.9
81.6571,496.8
81.6768,172.6
81.6901,16.9
81.7413,19.6
81.7439,186.3
81.7492,225.3
81.7659,888.9
81.7742,16.2
81.7759,623.2
81.7775,76.5
81.793,98.7
81.8116,465.8
81.8718,234.4
81.874,630
81.8912,103.1
81.9103,63.2
81.9151,72.6
81.9167,115.2
81.9202,54.2
81.9331,431.1
81.9534,17.9
81.9586,178.6
82.0032,59
82.0353,101.3
82.0364,94.2
82.038,64.1
82.0932,19
82.1014,71
82.1212,79.2
82.1615,270
82.1669,307.3
82.1825,63.1
82.2019,151.6
82.2116,50.9
82.2184,386.8
82.232,659.4
82.2355,71.7
82.2625,123.4
82.2966,343.6
82.3159,572.4
82.3278,116.7
82.3682,52.5
82.4019,535.2
82.4556,51.2
82.492,50.7
82.5074,92.7
82.5274,74.2
82.5996,99.9
82.6052,62.7
82.6375,99.9
82.6543,42.1
82.6751,95.9
82.6957,20.6
82.7042,169.8
82.7187,135.9
82.7198,758.2
82.7485,52.9
82.7722,141.6
82.7734,52.5
82.7767,273.5
82.7844,79.5
82.8029,65.6
82.8088,531
82.8567,97.1
82.8627,42.5
82.8658,95.5
82.8949,39.7
82.9008,38.6
82.9268,45.7
82.9448,4713.8
82.9728,264.2
82.9817,331.4
82.9996,68
83.0107,521.7
83.029,430
83.042,608.5
83.0603,51.6
83.0767,112.7
83.0842,134.4
83.0852,119.9
83.1103,46.3
83.1162,17.9
83.1215,197.7
83.1352,267.6
83.1831,47.9
83.1886,337.3
83.1903,166.9
83.2087,86
83.2283,55.6
83.2595,17.2
83.276,101.4
83.2847,285.4
83.2861,144.9
83.3131,157.9
83.3186,68.9
83.4006,470
83.4039,478.9
83.412,606.7
83.4152,515.6
83.444,129.1
83.4575,74.3
83.4964,665.4
83.5012,194.1
83.5021,160.9
83.5204,624.2
83.5243,56.9
83.5304,67.2
83.5343,404.1
83.5433,94.6
83.5438,118.4
83.545,56.2
83.5573,47.4
83.5742,53.4
83.5774,283.5
83.6092,41.5
83.6434,351.2
83.6513,451.1
83.696,165.4
83.7018,491.7
83.7124,199.3
83.7239,774.1
83.733,85.8
83.7382,112.4
83.765,87
83.7702,97.9
83.7765,87.1
83.7882,202.7
83.7902,687.3
83.8337,114.3
83.8563,361.9
83.8719,394.3
83.8834,353.9
83.8957,222.5
83.897,218.2
83.9082,48.6
83.9154,93.7
83.9348,263.8
83.9401,116.7
83.9624,438.7
83.9694,16.6
84.0387,107.1
84.0443,271.2
84.0494,392.6
84.0619,765.9
84.0807,123.1
84.0875,521
84.0889,57.2
84.0955,50.3
84.1046,687.8
84.1171,22.7
84.1484,221.4
84.152,66.2
84.1873,854.4
84.2447,109.5
84.2489,62.6
84.2655,541.6
84.2812,112.5
84.291,64.6
84.2992,369.4
84.3266,109.9
84.338,765
84.3471,51.5
84.358,196.3
84.4215,70.2
84.4247,59.6
84.4435,94.9
84.4562,1003.6
84.4823,16.8
84.4851,670.7
84.5028,205.2
84.5349,61.7
84.5464,65.2
84.565,52
84.632,601.1
84.6907,99.5
84.6976,615.5
84.6998,444.6
84.7203,194.4
84.7286,636.6
84.7347,19
84.7579,308.2
84.7692,216.2
84.7773,837.9
84.7915,20.3
84.8381,782.3
84.8544,48.5
84.8635,53.7
84.8813,146.7
84.8931,92.3
84.8976,122.5
84.9027,378.4
84.9181,535.2
84.9417,220.3
84.9499,106.6
84.9551,370.1
84.9596,26175.5
84.9768,555.3
84.9936,130.6
84.9987,181.9
85.0019,202.6
85.0081,192.8
85.0148,61.8
85.021,167.9
85.0283,2501
85.0338,43.8
85.0485,181.7
85.0779,175.5
85.0915,94.4
85.1017,63.3
85.1059,98.2
85.1066,172
85.1251,643.1
85.1322,209.6
85.1545,93
85.1663,491
85.1844,244.8
85.1993,73
85.2009,42
85.2119,16.1
85.2162,369.2
85.2186,203.1
85.2244,70.8
85.2392,366.7
85.2464,475.6
85.2547,94.8
85.275,728.3
85.2758,648
85.3001,379.5
85.3008,358.4
85.3194,41.3
85.3486,66
85.3665,86.6
85.4001,128.4
85.4335,695.3
85.4467,462.8
85.4657,151.8
85.478,198.4
85.5957,205.9
85.6049,77.8
85.6669,295.9
85.7185,45.1
85.7219,97.6
85.7375,653.8
85.8055,104.2
85.8114,260
85.8126,776.9
85.8156,85.9
85.8216,98.1
85.8367,94
85.8583,100
85.8681,215.2
85.8862,337.4
85.8967,510.2
85.9135,92.4
85.9232,187.6
85.9286,380.9
85.9495,84.4
85.9646,140.3
86.0095,66.3
86.0411,52.8
86.0475,530.4
86.054,51.8
86.06,61220.4
86.0964,66094.2
86.1045,587.4
86.1122,90.2
86.13,130.8
86.1928,120.1
86.2011,77.6
86.2276,622.7
86.2405,130.2
86.2532,291.3
86.2559,67.1
86.2605,107.9
86.262,551.3
86.2658,304.8
86.3038,807.7
86.3361,471
86.378,57.8
86.4357,76.5
86.4376,149.1
86.4416,134.1
86.4604,723.3
86.4644,583.1
86.4761,211
86.4784,317.2
86.4985,719
86.5292,93.3
86.5324,20.5
86.5422,73.9
86.5655,65.6
86.5684,178.1
86.576,17.6
86.5775,16.9
86.5802,61.5
86.6206,78.5
86.6405,665.5
86.6625,67.8
86.6632,233
86.6793,103.9
86.6971,202.7
86.7216,278.5
86.7405,146.7
86.744,503.1
86.7528,118.2
86.7538,555.5
86.8044,133.6
86.8454,887.1
86.8799,84.5
86.9026,114.6
86.915,354.5
86.9677,16.8
86.9938,514.1
87.0588,187.9
87.0941,106.2
87.1324,53.9
87.1349,70.5
87.1458,116.2
87.1514,101.9
87.1597,63.9
87.1614,441.2
87.1657,62.4
87.1705,184
87.1793,433
87.2073,16.9
87.2284,99.3
87.2299,497.4
87.2457,855.8
87.2487,343.6
87.2627,117
87.3064,725.9
87.3092,58
87.3156,70.4
87.3821,99.8
87.3902,91.3
87.426,54.5
87.4337,117.8
87.4565,179.6
87.4626,528.5
87.4644,354.5
87.49,515.3
87.4957,387.3
87.5195,201.6
87.5239,246.5
87.5396,18.2
87.563,663.5
87.5651,682.8
87.5772,88.2
87.5984,40.1
87.6088,41.1
87.6507,54.7
87.6522,427.1
87.6595,91.3
87.6815,531.3
87.7255,144.8
87.7341,515.5
87.7456,196
87.7603,131.8
87.7724,163.8
87.775,159.8
87.7811,75.5
87.7828,626.7
87.7856,87.9
87.7892,120.7
87.7941,45.9
87.8081,76.5
87.8121,58.5
87.8445,95.5
87.8468,43.8
87.8513,699.4
87.8637,95.4
87.8761,186.4
87.905,76.9
87.9788,74.1
87.9952,385.1
88.0125,114.3
88.0392,19232.6
88.0447,69.2
88.0621,456.2
88.0702,240.9
88.0748,317.5
88.0764,43.9
88.0775,177
88.0874,244.5
88.1106,113.1
88.1277,61.4
88.1336,59.9
88.1429,76.3
88.1554,83.4
88.1742,18.9
88.1812,634.4
88.1989,43.2
88.2019,111.3
88.2407,81.7
88.2482,50.7
88.3103,71.8
88.3142,911.4
88.3272,551.1
88.346,342.8
88.3524,54.8
88.3814,127.1
88.3924,53.2
88.4009,524.3
88.4299,49.4
88.467,360
88.4732,87.1
88.4929,23.1
88.4956,451
88.4968,17.8
88.5524,51.9
88.5735,506
88.5899,185.7
88.6461,26
88.6503,64.9
88.6558,82.6
88.6645,709.8
88.6864,128.4
88.6972,221.6
88.738,427.1
88.7549,155.2
88.7805,607.3
88.8092,368.7
88.8115,644.2
88.8168,79.5
88.819,149
88.8436,256.8
88.8509,307.9
88.8797,17.8
88.8865,15.9
88.9182,197.6
88.935,249.4
88.9464,521.1
88.9521,18.8
88.9531,49.3
89.0018,59.8
89.0052,48.5
89.021,46.6
89.0263,88.6
89.032,255.2
89.0323,233.3
89.0409,41.7
89.0589,425.2
89.0777,48.7
89.0785,74.9
89.0806,71.3
89.0884,345.6
89.1287,63
89.1441,295.6
89.1459,109.7
89.2018,218
89.2054,65.2
89.2218,17.1
89.2295,134.6
89.238,550.2
89.242,663.2
89.2576,1207.5
89.2634,638
89.3016,18
89.314,228.6
89.3176,350.3
89.3235,305.9
89.3301,54.6
89.3502,503.3
89.3865,364.4
89.4067,468.9
89.416,297.3
89.4224,75.1
89.429,57.2
89.4761,257.9
89.4887,50.7
89.4929,68
89.5349,112.5
89.5687,49.9
89.5844,422.3
89.5918,250.7
89.5936,242.7
89.5972,170.6
89.6061,383.4
89.6297,46.3
89.6382,522
89.6678,136.3
89.7126,145.3
89.7264,175.4
89.735,189.7
89.7653,366.3
89.7729,661.6
89.7879,52
89.794,103.9
89.8106,137.7
89.817,90
89.8595,80.2
89.8929,46.5
89.8937,107.4
89.9096,148.7
89.9363,84.8
89.981,48.9
89.9854,340.3
90.0048,573.1
90.0173,131.5
90.0339,18
90.0623,622.5
90.0742,544.6
90.0945,670.7
90.1,133.1
90.1406,445.3
90.1459,105.2
90.2591,72.7
90.2627,107.2
90.2646,62.2
90.2846,127.8
90.3199,54.8
90.3315,594.1
90.3341,484.1
90.3392,56.5
90.3789,517.4
90.3939,176.9
90.4057,404.6
90.4375,290.9
90.4426,542.4
90.4475,287
90.4692,261.1
90.484,782.3
90.5633,408.4
90.5889,582.1
90.6107,51
90.6139,394.2
90.6343,109.9
90.6471,18.9
90.6754,106.8
90.7293,296.6
90.7353,311.5
90.7626,147
90.7772,16.9
90.7958,157.2
90.8271,20.5
90.8373,564.2
90.8895,778.1
90.9192,248.9
90.9462,39
90.9476,120.7
90.9642,117
90.9693,770.5
90.9714,335.5
90.9766,4974.8
91.0037,355.7
91.0108,56
91.0227,50
91.0442,529.9
91.0466,83.4
91.0542,3914.8
91.108,63.1
91.1222,90.4
91.1788,76.4
91.1894,43.3
91.1971,195.6
91.2226,98.6
91.2238,220.8
91.2345,358.3
91.2573,387.5
91.2815,352.1
91.3203,19
91.3428,17.9
91.3659,67.2
91.3889,54.8
91.3951,92.1
91.4103,87.4
91.421,42.3
91.4279,19.8
91.4422,102.4
91.4497,39.4
91.4776,62.8
91.4958,19.4
91.5036,42.3
91.5262,189.7
91.5467,415.2
91.5631,107.8
91.619,51.8
91.6502,175.7
91.6595,269.1
91.684,189.2
91.688,87.5
91.7573,120.7
91.7639,39.5
91.7688,187.1
91.7767,79.1
91.7981,655.9
91.8256,22.9
91.8422,124.7
91.8439,439.6
91.9021,182.6
91.9231,67.7
91.9293,649.3
91.9373,66
91.9791,89
92.0211,625.1
92.0263,305.5
92.0322,68.3
92.0366,267
92.0495,24.1
92.0574,19.8
92.0724,19.2
92.0924,73.7
92.1007,72.3
92.1218,178.5
92.1267,130
92.1787,49.6
92.179,93.6
92.1792,88.3
92.2156,331.8
92.216,294.6
92.2194,196.8
92.2238,54.6
92.2574,116.3
92.2679,557.5
92.2902,536.8
92.3116,59.4
92.3183,544
92.3422,54.9
92.3494,330.4
92.3655,96.4
92.3669,714
92.3709,107.9
92.3822,107
92.392,17.1
92.4041,19
92.4076,921.3
92.424,98.2
92.4333,53
92.45,78.7
92.502,210.2
92.5244,918.3
92.5684,852.7
92.5694,400.2
92.5747,57.1
92.5768,99.6
92.5798,95.2
92.5976,87.4
92.6077,471.5
92.6145,130.4
92.6348,175.3
92.6556,98.8
92.7063,341.5
92.7412,145.9
92.7451,242.4
92.7621,516.6
92.7779,156
92.7859,115.7
92.801,95.6
92.8093,512.6
92.8767,111.7
92.8848,229.5
92.8978,18.2
92.9005,419.7
92.9273,40.8
92.9352,58.4
92.9448,47.1
92.9571,453.8
92.9625,180.9
92.9777,107.4
92.9798,824.3
93.0127,508.9
93.0295,123.8
93.0531,145.6
93.0554,40.8
93.0615,624.1
93.0698,84.5
93.0819,175.8
93.0842,52.7
93.0949,676.2
93.1011,93.4
93.1114,479.6
93.1271,157.8
93.1564,128.8
93.1722,183.6
93.211,22.7
93.2458,128.5
93.2548,16.8
93.2578,87.8
93.2739,609.5
93.2875,239
93.2954,511.4
93.3001,494.1
93.315,75.8
93.3185,411.7
93.3582,279.3
93.4032,136.7
93.4048,105.7
93.408,137.4
93.4236,201.1
93.4348,254.4
93.4411,77.2
93.4559,42.7
93.5173,41.3
93.5222,18.3
93.5948,43.8
93.6887,90.7
93.693,94.5
93.6947,468.5
93.7005,57.8
93.7071,138.7
93.7317,107.7
93.7928,119.7
93.8138,106.2
93.85,18.6
93.8551,302.3
93.8634,665.1
93.8814,47.2
93.9005,97.7
93.9151,224.6
93.9238,82.9
93.925,170.8
93.9573,16.5
93.9739,114.4
93.9797,94
93.9865,19.5
94.003,363.8
94.0099,646.2
94.0142,286.7
94.0145,323.3
94.0187,104.7
94.0267,138.6
94.0413,136200.3
94.0519,53.7
94.0595,78.5
94.0828,645.1
94.1426,447.2
94.1441,115.5
94.1459,57
94.1514,781.8
94.1727,60.2
94.2001,64.9
94.2201,150.5
94.2232,68
94.2246,18.8
94.2487,136.7
94.2526,56
94.2618,363
94.2839,725.8
94.2914,86.7
94.3317,174.1
94.4004,48.3
94.4185,355.8
94.4278,41.9
94.4409,370
94.4673,554.9
94.5096,121.8
94.5233,60.6
94.5508,592.1
94.6028,99.1
94.6239,17.8
94.6494,282.4
94.6539,57.2
94.6569,286.1
94.6696,79.1
94.7119,76.8
94.7915,75.9
94.7944,143.2
94.8205,80.3
94.8439,110.5
94.8797,97.3
94.9365,115.1
94.944,553.4
94.9453,112.5
94.9587,61.5
95.0031,64.1
95.0051,227.5
95.0088,92.1
95.0124,18.3
95.0357,71.9
95.0447,5412.7
95.0464,113.7
95.0491,508672.9
95.0511,81.6
95.0522,43.5
95.0626,29.3
95.0689,532.1
95.0698,468.8
95.0827,56.6
95.0854,201.7
95.103,97.2
95.111,86.1
95.1153,907.6
95.1464,148.5
95.1806,144
95.1838,95.5
95.2206,53.1
95.2495,95.7
95.2521,579.1
95.2621,106.5
95.2728,498.2
95.2827,77
95.3003,56.9
95.337,111.9
95.3383,153.3
95.368,167.5
95.3908,60.4
95.4203,341.9
95.4315,82
95.4435,66.9
95.454,106.3
95.4644,405.4
95.4858,261.9
95.5052,707.3
95.5192,94.6
95.5501,88.9
95.5588,347.3
95.569,670.8
95.5845,92.5
95.5994,74.4
95.6353,275.7
95.6371,167.5
95.6932,514.1
95.7449,72.4
95.7546,178.1
95.7794,287.4
95.7967,68.1
95.8607,223.6
95.9023,727.8
95.9084,681.3
95.931,451.6
95.9612,236.1
95.9662,353.9
95.9893,97.8
95.9974,46.9
96.0058,103
96.0455,20.5
96.0525,25487.3
96.1104,44.8
96.1137,18.1
96.1378,101.9
96.1415,301.4
96.158,338.9
96.1669,496.1
96.1776,427.6
96.2044,50.7
96.2091,198.8
96.2145,81.8
96.2265,570.9
96.2457,107.5
96.3018,228.3
96.3068,45.9
96.3137,18.3
96.3783,191.8
96.3878,242.1
96.4277,623.8
96.4388,47.1
96.4755,471.2
96.5513,101.1
96.5517,89.5
96.5521,63.9
96.5526,105.5
96.5818,80.7
96.5973,62.9
96.6402,191.7
96.6469,608.6
96.7075,46.2
96.715,188.4
96.7176,218.8
96.7197,146.5
96.7667,63.7
96.8015,64.6
96.8133,22
96.8164,102.7
96.8699,115.1
96.8794,151
96.8816,218.2
96.8963,91.7
96.9168,44.7
96.9218,92627.3
96.9279,98.5
96.9357,39.9
96.9576,190.1
96.9817,86.6
96.9879,52.5
97.0075,50.2
97.013,20.3
97.0248,65.8
97.0254,105.8
97.0395,584.3
97.0481,66.2
97.0505,70.7
97.0533,31.9
97.0559,25.1
97.061,128.8
97.0841,46.3
97.0986,56.3
97.1012,82.1
97.1181,18.6
97.1211,47.5
97.1341,105.1
97.1704,458.9
97.1712,78.9
97.2206,77.9
97.2246,68.4
97.2379,53.9
97.2791,119.6
97.2796,135
97.2836,73.5
97.3386,157.7
97.4285,470.5
97.4453,538.7
97.4634,90.7
97.4816,455.5
97.5019,117.3
97.5148,60.9
97.5296,1110.4
97.5321,198.1
97.5348,135.2
97.5494,248.9
97.5778,76.5
97.5849,138.3
97.5865,65.1
97.6206,53.9
97.6429,53.4
97.6446,57.7
97.6954,526.3
97.7019,186.4
97.7174,476.2
97.7185,329
97.7237,74
97.7411,58.7
97.7502,474.1
97.7635,49.8
97.786,689.4
97.8011,155.9
97.8543,167
97.8791,44.4
97.88,261
97.8898,140
97.9249,255.3
97.969,92.5
97.9796,499.1
97.9823,17.7
97.9831,107.2
98.0099,862
98.0654,777.2
98.0964,4012.2
98.1977,187.1
98.2224,124.7
98.2582,85.2
98.2672,19.1
98.302,241.7
98.3487,55.3
98.416,87.1
98.563,545.9
98.6147,48
98.6407,125.7
98.658,94.3
98.6902,82.7
98.7148,416.8
98.7191,113.9
98.8014,551.7
98.8114,636
98.8183,72.4
98.8494,121.6
98.8818,151.5
98.8845,177.9
98.8885,326.5
98.9188,23962.3
98.9199,4578
98.9247,605.5
98.9434,17.2
98.9447,82.8
98.9754,7950.9
98.9842,96.6
98.9909,849.9
98.9954,750
99.001,299.5
99.0254,82.8
99.0658,728.3
99.0707,96.5
99.0838,68.7
99.0917,221.2
99.0939,150.5
99.1747,149.2
99.1763,595.4
99.2076,103.5
99.2157,57.1
99.2658,54
99.2822,237.6
99.2898,801.4
99.3561,854
99.3872,96.1
99.4057,61.9
99.5466,329.9
99.5514,155.8
99.5723,89.4
99.5845,94.2
99.5992,330.1
99.6013,42.8
99.6104,81.1
99.6143,187.8
99.6323,139.5
99.6484,492.7
99.6593,84.3
99.665,499.9
99.68,379.1
99.6942,413.5
99.7554,184.7
99.7874,421.3
99.8072,193.1
99.9255,135.3
99.9323,440.5
99.9851,679.5
100.0004,83.2
100.0318,247.7
100.0763,157.8
100.1277,84.7
100.1365,241.1
100.1375,645.2
100.139,84.8
100.1462,156.1
100.1493,58.2
100.1872,68.8
100.1952,51.3
100.2084,661.8
100.2303,70.6
100.2623,18.2
100.2647,99.5
100.3085,89.4
100.3562,327.2
100.358,652
100.3893,118.7
100.3961,115.4
100.3987,693.5
100.4124,511.6
100.4375,92.8
100.4932,116.3
100.504,83.8
100.5084,184
100.5111,193.3
100.5205,561
100.5434,752
100.5447,335.8
100.5531,49.2
100.5594,111
100.5739,806
100.6289,481.7
100.6448,263.2
100.6514,323.2
100.6653,132.6
100.6808,107.7
100.6821,179.3
100.6899,59.4
100.7376,104.1
100.7389,78.8
100.7465,167
100.7603,484.5
100.7763,55.9
100.8531,64
100.9059,121.2
100.9112,265.2
100.9307,75.6
100.9505,446
100.96,59
100.9861,377.3
101.0084,30.6
101.0259,639.6
101.0277,121.6
101.0471,4553.6
101.0629,159
101.071,812.4
101.1106,753
101.1146,37.2
101.1393,151.7
101.1806,84.9
101.1895,388.9
101.2036,447.4
101.218,204.2
101.2359,53.3
101.2538,486
101.3133,663
101.3517,684
101.3555,54.7
101.3737,56
101.4003,638.9
101.4131,788.5
101.422,86.3
101.4458,269.1
101.4877,89.4
101.4984,215.6
101.5036,107.6
101.5173,106.6
101.5517,154.3
101.5544,52.8
101.564,59
101.5783,105.8
101.637,140.8
101.647,497.5
101.671,94.7
101.6722,675.4
101.7074,339
101.7178,92.7
101.7535,49.8
101.7719,64.6
101.7743,372.8
101.7792,820.3
101.8165,144.9
101.8262,258.6
101.8303,96.2
101.8883,37.7
101.9118,43.6
101.927,101.2
101.937,56.7
101.9474,285.2
101.9787,61.2
101.9799,63.4
101.9997,586.6
102.0266,743.8
102.0356,85.7
102.055,8585.4
102.1042,155.2
102.1489,79.3
102.1558,60
102.1614,676.5
102.1877,531.6
102.2332,160.1
102.2826,203.6
102.3224,107.6
102.3237,86.6
102.3604,756.7
102.3619,16.5
102.3793,104.4
102.386,133.7
102.4036,44.2
102.4754,18.8
102.4899,91.3
102.4931,23.5
102.4962,472.8
102.5112,569
102.5121,674.1
102.5456,57
102.5731,112.7
102.5766,609.1
102.5891,228.3
102.6306,62.4
102.6349,181.9
102.642,127
102.6539,17
102.6595,305.8
102.6854,104.2
102.6973,100.2
102.726,93.5
102.7281,91.6
102.7823,84
102.7935,79
102.8041,230.6
102.8071,441
102.8424,80.2
102.871,455.3
102.8726,160.3
102.8917,106
102.9144,975.7
102.9309,159.3
102.9378,100.4
102.9703,666
102.985,72.2
103.0143,42.3
103.0541,170.8
103.0696,109.5
103.0846,64.5
103.1263,221.9
103.1564,122.5
103.1733,76.2
103.2137,91.1
103.2823,926.4
103.2936,84.4
103.2951,121.8
103.3213,131
103.3689,89.8
103.3791,203.4
103.4239,58.7
103.4449,635.4
103.4616,625.8
103.47,739.4
103.4809,545.8
103.4848,83.9
103.5118,447.9
103.5136,91.7
103.5221,22.5
103.5283,96.6
103.531,555.4
103.5492,74.5
103.5736,99.7
103.585,112.5
103.6044,52.2
103.6112,126.9
103.6284,59.4
103.6415,545.1
103.6451,90.2
103.7473,205.7
103.7584,66.4
103.7653,90.2
103.8031,85.3
103.8215,138.8
103.8463,284.8
103.8659,77.7
103.8837,138.9
103.892,177.9
103.9844,47
103.99,43.1
104.0442,60.5
104.0686,94.8
104.0706,119.8
104.0955,53
104.107,304907.7
104.1318,77.4
104.1561,421
104.1973,456.1
104.2008,49.5
104.2162,190.7
104.2234,500.2
104.2281,51
104.2299,49.9
104.2395,480.5
104.2406,402.1
104.2516,57.8
104.2848,151.6
104.3094,110.9
104.3118,316
104.4104,48.5
104.4216,93.6
104.4401,18.8
104.4487,80.6
104.4542,740
104.4782,42.7
104.4961,105.2
104.5119,452.6
104.5215,121.9
104.5264,326.1
104.5471,95
104.5496,37.6
104.5921,616.6
104.6157,184.9
104.6929,922
104.7063,214.8
104.7174,20.9
104.7271,101.7
104.8432,85.5
104.8455,93.2
104.8767,649
104.9031,467.6
104.9633,502.7
104.9922,1280.7
105.0034,20.9
105.0119,89.3
105.0155,508.6
105.0343,162.1
105.0392,213.6
105.0448,50314.2
105.0517,709
105.0699,57.7
105.078,179.8
105.1104,10477.8
105.1471,129.8
105.1682,259.3
105.1783,108
105.2405,114.3
105.2443,150
105.2481,479
105.3702,132.9
105.3883,52.7
105.398,97.2
105.4194,43.8
105.4546,131.9
105.5208,464
105.5695,165.5
105.5781,64.2
105.6199,110
105.6562,46.3
105.6796,61.1
105.682,106.7
105.6905,86.3
105.7054,69.7
105.7824,892.1
105.7843,379.6
105.8176,19.5
105.821,18.7
105.8234,55.8
105.8409,558.6
105.8861,688.8
105.892,37.9
105.9072,61.5
105.9243,92.9
105.9508,320.7
105.9877,46
106.0055,366.7
106.0481,1827.3
106.0854,58.6
106.1565,18.2
106.1577,132.4
106.1806,331
106.2042,130.1
106.2065,905.9
106.2215,125.1
106.2508,370
106.3422,78.9
106.355,230.4
106.4067,281.3
106.449,759
106.5152,165.8
106.5369,166.8
106.5543,100.7
106.565,295.2
106.6142,54.8
106.6508,18
106.6664,131.2
106.6891,823.3
106.6907,93.2
106.7142,123.3
106.7159,247.9
106.735,64.9
106.7498,55.4
106.7614,596
106.7692,151.2
106.7974,49.8
106.8028,58.8
106.8036,58.6
106.8054,89.4
106.8454,89.5
106.8845,104.5
106.9128,85.2
106.9252,93
106.933,182.9
106.9506,892.9
106.9617,394.9
106.9707,486.6
106.9834,198.4
106.9923,949
107.0041,60.5
107.027,49.3
107.0284,108.8
107.0492,1344.9
107.0818,245.4
107.0856,148.3
107.1122,79.9
107.1251,203.8
107.1384,67
107.1595,68.5
107.1745,172.7
107.189,41
107.1994,134
107.2073,70.6
107.2079,73.4
107.2146,733.4
107.217,612.5
107.251,168.8
107.2836,66
107.2991,47.2
107.3049,415
107.323,833.1
107.3335,404.8
107.3487,60.1
107.3559,258.1
107.3809,80.6
107.4905,53.9
107.5719,611.1
107.6219,39.2
107.6554,291.5
107.6571,254.9
107.6673,20.5
107.6695,83.5
107.7327,18.4
107.738,105.5
107.7435,498.9
107.7445,85.1
107.7811,172.6
107.7879,79.5
107.8829,190.6
107.8846,559.7
107.9008,129
107.9142,453
107.9412,105.3
107.9441,306.2
107.9592,131.5
107.9899,182.9
108.0343,290.8
108.0411,46
108.0571,24.8
108.0616,80.1
108.0692,633
108.0715,372.8
108.0754,21.8
108.0965,450.2
108.1025,20.5
108.1416,491.7
108.1595,160.3
108.1936,81.3
108.2386,39.9
108.2492,42.4
108.267,571.4
108.2717,57.9
108.2903,17.2
108.3002,75.3
108.3125,139.1
108.3233,56
108.3679,42.4
108.414,72.5
108.4188,61.6
108.4658,190.8
108.553,457
108.6135,243.1
108.6205,83.7
108.6507,59.6
108.675,465.2
108.6997,355.9
108.7143,106.3
108.7213,174.4
108.7292,554.6
108.8143,187
108.8556,120.1
108.8645,508.1
108.8798,156.4
108.9515,118.3
108.9751,89.6
108.9928,125.3
108.9994,98
109.0174,705.1
109.0189,132
109.0629,30.9
109.0649,157803.6
109.0663,84.1
109.1013,53.4
109.1101,199.1
109.134,20.4
109.1454,212.7
109.2068,191
109.2982,814.6
109.3209,147.9
109.3637,245.5
109.3714,136.5
109.3727,93.6
109.3993,67
109.4147,821.6
109.4666,89
109.4807,834
109.5028,114.6
109.5227,79
109.5698,67.5
109.5916,344.7
109.6131,53.8
109.6299,387.6
109.6358,110.9
109.665,65.2
109.7241,37.5
109.7398,60.6
109.7424,227.3
109.7604,129.7
109.7787,71.3
109.7842,536.7
109.8193,95.2
109.8417,209.5
109.8459,141.4
109.8482,371.4
109.8692,422.6
109.8792,60.8
109.88,422
109.9824,89.7
110.02,45.8
110.0266,82.7
110.0325,169
110.0682,8442.8
110.0713,1574.8
110.0877,40.2
110.1037,570.7
110.2131,135.4
110.2254,18
110.2382,118.3
110.2713,76.2
110.3054,48.4
110.3179,110.8
110.3192,51.3
110.3313,84.2
110.3612,51.9
110.3655,612.6
110.3846,44.9
110.398,184
110.4018,83.1
110.4468,188.5
110.4897,45
110.5291,56.1
110.5463,77.7
110.5917,87.6
110.5971,146.1
110.7071,353.1
110.7145,66
110.7209,20.3
110.7324,220.7
110.739,123.8
110.7438,44.6
110.7472,480.6
110.7521,93.9
110.7688,95.3
110.7716,112.2
110.83,783.2
110.8614,41.2
110.8724,63.8
110.8795,421.9
110.9954,62.2
111.0233,308
111.0443,1115
111.0717,19.7
111.1073,192.2
111.1562,135
111.2045,17.3
111.2149,18.8
111.2361,793.1
111.3765,481.7
111.405,76.3
111.4122,77.8
111.4251,302.6
111.4346,257.7
111.4442,504
111.4707,216.6
111.4887,119.2
111.5268,213.2
111.5786,96.7
111.5927,62.4
111.6094,474.9
111.6493,104.1
111.6516,50.8
111.6567,382.1
111.677,61.7
111.6921,538.2
111.7208,761.2
111.7917,107.2
111.7961,66
111.8416,78.9
111.8546,19.6
111.8728,429.2
111.8911,104.4
111.906,54.5
112.076,92.1
112.0786,57.3
112.0863,44
112.0996,62.8
112.1061,162.1
112.1146,657.8
112.1175,775
112.1359,557.8
112.1805,139.2
112.1886,138.4
112.1921,77.2
112.1982,128.3
112.2314,485
112.2325,521.9
112.2342,87.9
112.2424,384.2
112.2462,43.8
112.2532,657.7
112.3253,178.5
112.3327,75.3
112.3648,146.2
112.4179,62.5
112.449,261.8
112.4586,44.9
112.4882,19.9
112.497,46.5
112.531,130.1
112.5365,47.7
112.5443,90.9
112.5509,201.7
112.5865,18.5
112.6599,95.3
112.6683,127.5
112.7304,381
112.7351,48.2
112.7752,61.6
112.7912,101.8
112.8111,778.5
112.8351,1025.4
112.8462,49.1
112.8581,186.1
112.8592,295.6
112.867,799.3
112.8958,310978
112.9382,69.1
112.9598,133.8
112.9957,78.3
113.0054,687.1
113.007,186.2
113.0105,146.4
113.0221,450.5
113.0334,221.2
113.0584,546.6
113.0652,109.1
113.0745,19.4
113.0804,90.3
113.0896,65.3
113.0916,90.7
113.1342,544.8
113.1376,88.2
113.1444,136.3
113.1912,132.7
113.1998,71.7
113.2436,65.5
113.2702,78.6
113.3135,82.7
113.3163,253.3
113.3681,507.1
113.3761,98.2
113.3798,19.8
113.4197,76.4
113.4306,49.1
113.4963,170.2
113.5836,61.7
113.6666,51.5
113.6864,287.3
113.7568,165.1
113.7621,77.1
113.7939,984.5
113.799,55
113.8178,125.1
113.9902,111.7
113.9945,577.9
114.0075,137.4
114.0525,223.3
114.055,106163.9
114.0663,2651.2
114.0877,79.8
114.0913,20.6
114.0951,41.5
114.1058,150.5
114.1095,522.9
114.1182,521.9
114.1527,47
114.1547,46.3
114.1671,57.1
114.1971,389.1
114.2034,100.6
114.224,101.5
114.3034,61.4
114.3333,143.9
114.3407,493.1
114.395,219.6
114.4088,532
114.4338,512.7
114.4345,521.2
114.4429,548.3
114.4667,428.5
114.4845,48.6
114.4961,216.5
114.5292,227.5
114.5774,53.2
114.6002,396.3
114.6564,66.9
114.6858,70.1
114.6907,95.6
114.6946,302
114.6999,18.5
114.7451,169.7
114.7668,173.5
114.8222,80.4
114.8929,96889.8
114.8938,41040.7
114.902,72.6
114.921,474
114.9481,22.3
114.9584,17
114.9659,203.8
114.9734,180
114.9992,524.6
115.0194,741.1
115.0495,16.7
115.0545,20.8
115.0584,2924.4
115.0768,573.6
115.0856,47.9
115.1118,99.9
115.1239,47.9
115.1294,100.2
115.1409,44.5
115.1569,173.9
115.1777,51.5
115.2151,488.1
115.3264,69.5
115.3849,462.6
115.4499,66.2
115.4633,47.2
115.4703,924.8
115.4821,68.6
115.5194,94.3
115.5288,214.3
115.5449,16.5
115.574,622.6
115.592,65.1
115.6294,371.1
115.6392,17.1
115.6679,206
115.6979,172
115.7088,98.9
115.803,527.3
115.8346,530.5
115.8749,58.9
115.877,518.6
115.8861,112.5
115.9103,58.1
115.911,98.5
115.9117,106.1
115.9163,19
115.9178,49
115.93,326.3
115.9758,41.8
115.9793,24.7
116.016,566.7
116.0166,533.9
116.0335,756.2
116.0427,66.6
116.0507,89.1
116.0649,318.3
116.0677,353.6
116.0707,8825.4
116.092,50.7
116.0983,81.8
116.1635,57.2
116.1795,60.5
116.1918,247.6
116.2023,282.9
116.3236,87.7
116.324,88.1
116.3341,573.4
116.3438,117.6
116.3457,608.2
116.4386,52.8
116.4759,124.2
116.5021,105.5
116.5603,74.6
116.5884,74
116.6212,207
116.6425,302.6
116.6678,66
116.7491,188.6
116.7532,186.6
116.7682,19.2
116.7935,66.5
116.8126,18.7
116.8477,67.9
116.8839,82.1
116.891,10108.9
116.9203,48.5
116.9318,130.2
116.9487,82.9
116.9806,114
116.986,5565.1
117.0161,70
117.0228,116.3
117.0489,119.1
117.07,31.1
117.0726,73.2
117.0811,431.4
117.1167,62
117.1381,47.6
117.1574,268.7
117.1596,132.7
117.2056,788.8
117.2284,688.6
117.2534,389.2
117.2971,49.9
117.3061,336.3
117.3192,563.9
117.3416,87.6
117.37,124.8
117.3723,55.6
117.3828,202.7
117.3895,47.3
117.4929,17.5
117.5278,110.6
117.5292,482.9
117.5318,60.6
117.584,84.2
117.5922,84.6
117.5994,22.8
117.6516,47.6
117.6668,192.2
117.6969,104.5
117.6996,107.9
117.7102,591.3
117.756,430.8
117.7953,19.6
117.8488,514.9
117.8682,31.2
117.8729,585.4
117.8835,298.3
117.8953,133.1
117.942,104.6
118.0057,117.2
118.0235,488.1
118.0293,445.9
118.0511,44
118.065,78.2
118.0943,275.4
118.1364,60.3
118.158,56.9
118.1692,75.3
118.1753,582.8
118.2037,143
118.2105,234
118.2495,57.4
118.2515,670.3
118.2937,1227.6
118.3265,113.3
118.346,679.3
118.3763,84.3
118.3855,420.5
118.4179,162.6
118.4286,16.6
118.4569,43.7
118.4853,54.3
118.4901,114
118.5539,192.7
118.6524,66.2
118.7078,126.4
118.7598,214.2
118.7664,382.6
118.7832,557.8
118.797,461.4
118.8017,176.2
118.8103,442.8
118.8415,498
118.8449,192.5
118.8784,44.8
118.918,58.8
118.9427,29.3
118.9636,163.8
118.9791,131.5
119.0191,56.4
119.0507,55.5
119.0923,686.3
119.0957,65.8
119.1066,156.6
119.1121,68.5
119.1393,192.3
119.1698,129.1
119.2198,399.5
119.2421,351.6
119.2568,87.4
119.2832,89.4
119.3139,65.7
119.3448,67.4
119.3677,324.1
119.3815,532.5
119.3934,363.6
119.4355,19.6
119.4653,93.4
119.5143,94.5
119.5299,803.3
119.5364,171.5
119.611,435.2
119.6223,512.1
119.6273,21.4
119.6711,214.5
119.7427,730.2
119.7439,187.9
119.7519,261.3
119.7657,712.8
119.7869,274.9
119.7933,43.8
119.7957,118.5
119.8323,409.6
119.8494,726.6
119.897,233.3
119.9088,711.3
120.0034,1931.8
120.0223,666.1
120.0277,61.5
120.0659,72.1
120.0809,9178.5
120.1441,116.8
120.2194,198.7
120.2254,19.1
120.2629,730.2
120.299,316.4
120.3232,330.3
120.3244,54.7
120.4591,122.3
120.4853,114.9
120.4882,562.7
120.4912,178
120.5621,62.3
120.5671,73.6
120.5675,79.5
120.5681,51
120.5958,418.1
120.6127,504.4
120.6223,97.5
120.6549,799.9
120.6681,282
120.7016,236.4
120.7086,350.6
120.729,45.2
120.7728,88.6
120.7887,79.9
120.8361,310.3
120.8428,49.6
120.8488,95.5
120.8533,167
120.8919,93.3
120.9459,45.2
120.9648,97.1
120.9809,184.9
121.0077,362.7
121.0179,86.6
121.0284,238.2
121.0397,24.2
121.0852,586.5
121.1024,61.4
121.2131,164.5
121.2883,77.5
121.2988,119.2
121.3029,188.3
121.3323,182.4
121.3563,96.2
121.3582,439.1
121.3792,128.3
121.3884,594.2
121.4124,64.8
121.4282,48.2
121.4305,745.4
121.4524,19.6
121.474,15.9
121.4821,529.1
121.5325,44.5
121.5709,832.6
121.588,50.7
121.6045,129.5
121.6241,531.3
121.6564,107.8
121.6883,220.9
121.7065,208.8
121.8196,124.6
121.856,720.2
121.8579,457
121.8676,92
121.8741,722.4
121.9103,421.1
121.9372,174.7
122.0419,741
122.1483,56.1
122.1496,64.8
122.2054,98.4
122.2776,79.3
122.2853,184.5
122.3053,190.3
122.3183,17.7
122.365,89.4
122.3817,768.9
122.4141,334.7
122.4231,109.8
122.4464,209.2
122.4599,17.2
122.5484,257.1
122.5516,16.7
122.5736,455
122.5772,99.4
122.6093,42.5
122.6286,153.5
122.69,540.9
122.6945,163.8
122.7439,247.8
122.7612,213.3
122.7676,464.5
122.787,233.7
122.8004,67.7
122.8347,103.9
122.8449,51.4
122.8747,177
122.8775,61.2
122.9231,59.9
122.9247,11891.5
122.939,120.7
122.9437,853.1
122.9483,21.5
123.0806,27.2
123.1271,19.3
123.1381,520
123.1635,941.2
123.173,773.3
123.1807,187.9
123.1959,504.8
123.1982,264.4
123.2007,20.4
123.2262,461.4
123.2677,19.8
123.303,43
123.3333,200
123.3467,117.6
123.383,185.5
123.4006,77.1
123.4481,87.8
123.4624,154.5
123.4909,561.2
123.4996,262.9
123.5308,162
123.5406,59.2
123.6143,1679.8
123.6198,195.1
123.6831,759.4
123.6863,66.4
123.7204,154.8
123.7632,65.6
123.7655,345.1
123.7969,561.2
123.8121,83.4
123.8477,105.8
123.9253,57.4
123.9762,167
124.0306,61.8
124.0349,63.7
124.0372,81.9
124.1,213.4
124.1096,95.3
124.2108,306.7
124.2388,96.6
124.247,140.4
124.2549,52.4
124.2971,197.5
124.3898,46.4
124.4481,548.4
124.4889,68.3
124.5356,62.4
124.5479,660.4
124.5621,166.2
124.6038,152.3
124.6568,83.3
124.6634,19.6
124.6826,157.7
124.6926,281.9
124.7063,209.4
124.7387,908.6
124.759,52.4
124.777,69.9
124.8025,132
124.8874,108.5
124.9228,863.4
124.9271,712.5
124.9449,145.5
125,3021.8
125.0057,145.7
125.0101,195.7
125.0119,176.4
125.0154,8494.5
125.0212,146.5
125.039,330.6
125.0477,605.9
125.0598,79.7
125.0913,122.1
125.0945,933.5
125.0963,25.5
125.1074,55.1
125.2336,62.2
125.4111,46
125.4159,532.4
125.4265,70.3
125.4298,823.4
125.4872,57.1
125.4973,95.4
125.5253,247.8
125.5301,64.9
125.5806,929.1
125.6318,85.4
125.6583,523.9
125.6611,65
125.6813,387.1
125.6911,55.8
125.6944,141.7
125.7067,155.4
125.7086,538
125.7159,57.1
125.7478,154.5
125.7617,424.7
125.7833,374.1
125.7942,306.5
125.8018,18.2
125.8142,67.5
125.8593,22.2
125.8626,587.3
125.8997,96.9
125.9267,98.2
125.9545,713.2
125.9623,333.7
126.0056,228
126.0075,73.5
126.0101,791.2
126.0196,149.2
126.0804,147.6
126.0968,86
126.1029,63.2
126.1088,95.4
126.1792,131.4
126.1816,117.3
126.205,179.8
126.3402,17.6
126.3877,110.5
126.4765,568.9
126.4821,52.2
126.4904,93.2
126.5198,166
126.5389,75.6
126.5735,66.4
126.576,150.7
126.6896,92.9
126.7534,148.5
126.7703,78.2
126.7808,336.4
126.8624,539.8
126.8698,671.7
126.8836,81.6
126.8943,95.6
126.9071,137.1
126.9265,45.9
126.9362,493.8
126.9843,251.2
127.0125,129.5
127.0479,53.6
127.1197,690.6
127.1284,380
127.1495,444.9
127.1589,717
127.1607,41.6
127.1658,110.7
127.168,91.4
127.1991,54.2
127.2403,45.9
127.272,254.1
127.3512,119.8
127.3724,76.5
127.4117,49.3
127.4223,63.3
127.4278,396.1
127.4768,83.5
127.4927,93.4
127.5257,202
127.5345,49.5
127.5393,358.5
127.5561,49.5
127.5691,47.2
127.6041,57.7
127.6104,50.4
127.65,208.6
127.6511,52.3
127.6556,879.8
127.6769,96
127.7068,76.5
127.8299,155.9
127.9301,22.7
127.9912,46.7
128.0256,48.5
128.0625,586.1
128.1119,342.8
128.1319,102.4
128.1519,18.2
128.2181,55.9
128.2823,552.2
128.2921,89.5
128.3127,59.1
128.3203,657.5
128.3256,403.2
128.3483,67.1
128.3577,572.5
128.3623,533.9
128.3889,123.8
128.3919,772.4
128.4403,590.3
128.5404,100.2
128.5584,708.1
128.5767,50.4
128.5781,59.2
128.5801,788.4
128.6314,47.4
128.6353,325
128.6797,370.8
128.7248,138.7
128.7724,128
128.8928,18.6
128.9564,95.7
128.988,81.7
129.0035,814.6
129.0359,718.4
129.1025,1127.1
129.1747,101.6
129.1903,147
129.2578,127.9
129.2689,42.4
129.3503,18.3
129.3757,19.3
129.3945,60.3
129.4147,173.8
129.4438,99
129.5974,91.9
129.6103,181.8
129.6692,747.7
129.6752,125.8
129.6805,96.3
129.7073,64.6
129.7419,42.7
129.7974,44.3
129.8098,77
129.812,243.8
129.8544,555.3
129.9247,187
129.963,586
129.9779,19.3
130.031,364.7
130.0397,515.5
130.05,10840.1
130.159,274.2
130.2353,340.5
130.2391,473.8
130.3294,47.2
130.357,75.3
130.3639,380.3
130.4266,141.9
130.4559,481.5
130.4652,48
130.4721,294.6
130.4843,270.2
130.503,19.9
130.5206,210.6
130.5299,86.6
130.551,759.4
130.6026,58
130.6245,567.2
130.6334,529.8
130.6428,118.2
130.6917,17.4
130.799,78.8
130.8759,544.2
130.9414,648.7
130.9514,801.8
130.9842,43.8
130.9961,531.6
131.0017,24.9
131.0165,53.7
131.0178,470.3
131.021,44.3
131.0233,223.5
131.0243,77.9
131.0625,50.1
131.0819,66.1
131.1101,73.6
131.1277,71
131.1465,58.3
131.1518,596.6
131.1624,65.4
131.181,77.9
131.3494,99.4
131.518,76.1
131.5762,16.8
131.5977,111.9
131.6101,59.3
131.6998,596.8
131.7343,450.1
131.7718,125.7
131.7946,822.9
131.8015,97.3
131.8183,706.7
131.8236,43.2
131.9289,60.3
131.9878,165.9
132.0034,24073.8
132.0455,474.9
132.0543,580
132.0579,640.3
132.0593,681.9
132.061,190.1
132.0657,204520.4
132.0769,7179.1
132.1124,51.6
132.1402,83.9
132.2079,191.6
132.2222,96.7
132.2242,582.5
132.3199,105.6
132.379,114.7
132.4537,524.4
132.481,97.3
132.527,487.9
132.5751,236.2
132.6091,498.6
132.6593,158.1
132.6961,54.4
132.7455,100.8
132.7596,661.6
132.7705,20.3
132.8186,894.1
132.8946,80.3
132.9438,403.4
132.9584,112.3
132.9874,1644.9
133.0098,88.7
133.0305,19
133.0628,68.8
133.069,7445.2
133.0861,32.7
133.0973,25171.3
133.1376,248.9
133.1499,56
133.1514,70
133.189,18.7
133.2058,57.9
133.2647,200.3
133.3096,70
133.3342,724.8
133.3391,239.2
133.3798,122.9
133.388,299.3
133.4061,135.9
133.4488,85
133.4706,433.5
133.4936,218.6
133.5207,18.2
133.5286,777.3
133.5634,96.3
133.5662,48.7
133.5679,20.5
133.6429,722.4
133.6886,255.9
133.6941,745.9
133.7757,95.3
133.8209,80
133.8298,41.3
133.8499,88.6
133.8596,16
133.8924,60.4
133.9152,737.5
133.9332,239.5
134.0142,81.9
134.0191,7199.9
134.0501,112.2
134.0968,558.8
134.1235,64.4
134.1625,87.6
134.2122,128.7
134.213,133
134.2332,55.7
134.2487,115.4
134.2543,83.9
134.27,742.4
134.2973,235.2
134.3014,334.1
134.3096,524.6
134.4373,286.4
134.4596,348.1
134.4696,57.1
134.4779,543.8
134.4921,22
134.5342,70.5
134.5708,83.8
134.6328,696.7
134.6471,68.8
134.6654,65.1
134.6858,79.6
134.6885,46.3
134.7016,172.4
134.7055,111
134.7612,990.8
134.7654,825.7
134.7845,432.1
134.8205,229
134.8353,176.1
134.925,295.7
134.9369,147.1
134.9964,72.3
135.003,47661.2
135.005,90.8
135.0069,249.5
135.0122,61
135.0234,30.5
135.0267,58.2
135.0594,556.8
135.085,121.6
135.1056,581.6
135.117,119.3
135.1467,178.5
135.2612,81.3
135.2633,232
135.2667,152.8
135.3648,724.9
135.4159,159.7
135.4218,267.8
135.4341,900.3
135.437,17.8
135.4595,749.8
135.5381,60.6
135.5404,435.3
135.6623,146.6
135.6793,16.1
135.7227,202.2
135.7557,75.5
135.7719,47.1
135.7994,404.8
135.8105,427
135.8248,17.5
135.9191,43.7
135.9735,107.3
135.9773,1299.8
136.0064,493.8
136.0227,903.9
136.0367,160.6
136.0483,6502.1
136.0618,16.6
136.0674,127.1
136.0759,4394.1
136.1347,100.9
136.1555,51.1
136.1685,334.2
136.1767,99.6
136.1911,70.2
136.2563,343.3
136.2667,19
136.2679,441.4
136.3223,19.9
136.3239,47.7
136.3915,103.7
136.427,44.4
136.4307,104.1
136.4637,133
136.4924,56
136.4961,53.3
136.5781,262.5
136.7088,46.7
136.7635,41.7
136.7659,108.4
136.7827,197
136.7993,161.7
136.8035,528
136.8074,61.1
136.8105,49.4
136.8192,148.7
136.8301,218.4
136.8498,136.1
136.8581,356.6
136.8637,190.7
136.8678,477.9
136.9151,255.3
136.9311,949.4
136.9425,198.4
136.9687,126.5
136.9871,56.5
137.0734,159.6
137.1549,989.7
137.1935,754
137.2468,114.8
137.2701,111
137.3098,525.7
137.3228,80
137.37,633.4
137.405,49.2
137.4994,582.6
137.5363,76.4
137.5408,48.7
137.5733,99.5
137.5802,205.4
137.5964,102.4
137.6005,64.3
137.6807,41.5
137.7261,258.9
137.8027,451.6
137.8738,594.3
137.8996,225.4
137.9012,784.9
137.9032,454
137.9149,186.4
137.9241,48.8
137.9248,51.9
137.9801,433.5
138.0527,9956.1
138.0664,29.5
138.1099,96.5
138.1973,18.5
138.3017,54.1
138.3065,166.8
138.3266,86.9
138.3616,51.5
138.3647,204.1
138.3691,432.8
138.4171,268.7
138.4204,239.4
138.4249,244.7
138.4363,144.2
138.6479,536
138.6657,50.6
138.6748,58.6
138.685,491
138.6876,540.6
138.7498,162
138.778,143.1
138.7981,19.2
138.83,254.3
138.9053,53.5
138.9067,1375
138.9461,71.4
138.9486,225.8
138.9517,181.3
138.9644,55.9
138.9702,114.9
138.9932,90.9
139.0005,51.7
139.0228,862.3
139.0467,446.1
139.089,92.9
139.1106,50
139.1121,589.1
139.1278,93.3
139.1569,620.1
139.1842,478.4
139.2277,351.6
139.2441,74
139.2669,122.8
139.3324,40.2
139.3412,192.6
139.4374,21.5
139.4513,99.9
139.456,74
139.5245,353.8
139.5464,493.2
139.5688,151.5
139.6575,510.1
139.6817,56.7
139.6853,533.1
139.7367,143.7
139.7387,540.7
139.8526,437.8
139.856,52.2
139.8844,56.3
139.9901,656.3
140.0088,862.1
140.0166,915
140.0376,645.1
140.0483,65.4
140.0684,2887.6
140.0708,17.7
140.1467,360.6
140.2005,95
140.221,151.3
140.2242,274.6
140.2375,754.4
140.24,540.6
140.2557,613.9
140.2643,17.4
140.2666,204.7
140.2706,50.2
140.2994,60.8
140.3175,111.5
140.4508,274
140.4751,108.6
140.495,91.4
140.5792,68.4
140.6037,53.8
140.6673,136.9
140.6775,70.5
140.7515,121
140.7535,91.8
140.7671,27.5
140.7788,53.8
140.7876,94.5
140.7912,108.3
140.8029,140.1
140.8969,66.9
140.9003,122.7
140.9037,703.2
140.9131,108.3
140.9526,19.8
140.9814,750.6
141.0007,39563
141.0267,268.3
141.0814,631
141.0931,103.2
141.1022,108.3
141.1174,892.3
141.133,71
141.14,170.1
141.2211,50.6
141.2508,111.3
141.2935,61.9
141.3147,82.1
141.3606,166.8
141.3793,81.2
141.4334,55.8
141.4679,87.4
141.5425,62.3
141.5509,387.8
141.5695,706.8
141.5832,143.1
141.6291,78.3
141.6523,43.2
141.6619,787.8
141.7109,101.3
141.7503,18.3
141.8458,521.2
141.8503,116.4
141.8761,47.7
141.8809,52.2
141.9033,268.7
141.908,49.6
141.9231,117.3
141.9568,78.6
141.9653,74.4
142.004,1069.3
142.0178,69.7
142.0587,202
142.1,57.8
142.1141,676.5
142.1226,22.1
142.1269,452.1
142.144,49.6
142.2303,347.8
142.2521,890.1
142.2748,105.3
142.2854,115.9
142.3572,53.1
142.361,713.4
142.4397,708.9
142.4423,635.4
142.4706,165.5
142.5938,102.4
142.6597,173
142.7364,360.4
142.8417,85.7
142.8791,349.4
142.9482,45.8
142.9517,111.8
142.9876,135.6
142.9965,274.3
143.0258,56.3
143.0428,721.7
143.0502,517.5
143.0817,214.5
143.1167,640.4
143.1304,54.8
143.2067,508.6
143.2384,523.4
143.3272,39.2
143.3411,148.2
143.3605,227.6
143.4046,65.1
143.4231,58.4
143.474,64
143.4992,512.6
143.5119,69.7
143.5168,128.7
143.5816,51
143.64,56.3
143.6844,497.8
143.6985,56
143.7022,75.6
143.7165,45.3
143.7322,106.7
143.7647,20.3
143.7778,167.6
143.7831,104.8
143.8308,397.9
143.834,747.9
143.845,462.5
143.8518,89.9
143.8904,694.7
143.9104,176.7
143.9608,484
143.9654,220.5
143.997,344.7
144.0109,43.2
144.0228,156.4
144.0495,372.7
144.0582,132.4
144.1035,123.7
144.1277,433.7
144.2688,54.8
144.3899,119.3
144.4361,256.5
144.4598,115.9
144.4679,83.1
144.4971,44.5
144.5244,381.5
144.5451,145
144.5617,180.9
144.5687,97.2
144.5948,40.6
144.6754,111.3
144.6846,674.2
144.7673,71
144.7865,455.8
144.9568,100.4
144.9811,4607.4
145.0395,66.6
145.0445,673.1
145.1026,235.6
145.1474,210.1
145.1989,75.9
145.2388,93.3
145.2561,47.9
145.271,122.2
145.2836,96.6
145.2875,134.1
145.352,47.4
145.3964,66.5
145.4168,356.4
145.4643,62.6
145.4768,18.8
145.5641,506.7
145.6834,143.9
145.6877,79.4
145.7352,183.7
145.7593,22.5
145.7804,188.7
145.8277,503.6
145.8333,78.6
145.8641,1014.8
145.8946,218.3
145.8995,166.3
145.9061,520.2
145.979,818.8
145.9824,92.4
145.993,89.6
146.0127,1999.2
146.0191,17020.5
146.0448,24.2
146.0497,117
146.0921,106
146.1084,530.4
146.1882,53.4
146.2015,77.4
146.2504,375.4
146.2956,112.9
146.3132,324.4
146.3214,75.9
146.3634,206.2
146.4232,195.9
146.4735,420.8
146.4863,56.7
146.5026,347.3
146.5238,266.1
146.5356,385
146.5375,152.5
146.6025,17.2
146.6067,18.4
146.6221,18
146.6534,168.9
146.6761,91.7
146.7393,95.4
146.8734,59.2
146.8959,95.6
146.9167,257.8
146.9564,58.3
146.9595,98.2
146.9745,19
146.982,54118.6
147.0766,63981.2
147.109,61
147.113,28751.7
147.117,214.5
147.1232,502.5
147.1248,502
147.1503,48.1
147.2054,46.9
147.2654,112.9
147.347,106.1
147.388,114.6
147.3983,63.7
147.4064,596.5
147.4211,352
147.5229,257.2
147.532,71.3
147.6055,45.8
147.6893,117.2
147.7888,55.4
147.8353,872
147.8786,829.9
147.911,98.6
147.9157,207.5
147.9487,328.3
147.9658,176.1
148.0703,312.7
148.1255,57.8
148.1845,54.2
148.1862,66.9
148.2264,94.3
148.2652,57.1
148.2825,957.6
148.342,361.3
148.3741,58.6
148.4563,48.9
148.4661,97.8
148.4869,650
148.5325,1274.6
148.5392,92.3
148.6604,60.2
148.6782,503.1
148.6827,58.4
148.6908,191.8
148.7605,119
148.7767,47.6
148.7825,239.9
148.7967,139.8
148.8509,71.6
148.8603,61.1
148.9543,97.3
148.9615,1626.6
149.0029,68.5
149.0124,85.2
149.0186,1434
149.0236,7146.8
149.038,267.9
149.0454,98.5
149.0689,51
149.0934,17.7
149.0998,49.5
149.1734,471.9
149.2578,122.8
149.2948,745.7
149.3433,366.8
149.3911,93.4
149.4124,834.7
149.4215,111.5
149.4535,171.9
149.5015,115.9
149.5528,53.1
149.6562,104.4
149.8022,170.6
149.8309,69.8
149.8566,239.2
149.875,182.9
149.8791,547.7
149.9148,61.1
149.9255,61.8
149.9648,95.1
149.993,6537.4
150.014,2928.7
150.0272,76.1
150.0438,528.8
150.085,175.3
150.0875,157.5
150.2203,154.7
150.2576,100.5
150.3931,621.8
150.437,363.3
150.5215,66.9
150.5977,506.1
150.6133,49.9
150.6729,620.9
150.6889,523.9
150.7282,142.3
150.7334,579.9
150.7822,793
150.8116,102.9
150.8266,55.7
150.8376,715
150.8501,46.7
150.8815,124.9
150.8869,505.5
150.9345,65.3
150.9374,145.5
150.9771,31769.8
150.9843,154.9
151.048,2947.8
151.063,325.9
151.0857,125.7
151.132,54
151.1393,123.7
151.2223,111.4
151.2665,93.7
151.3144,78.6
151.3617,234.8
151.407,209.2
151.4168,111.9
151.4423,47.6
151.4479,416.7
151.4512,47.7
151.5129,57.6
151.5411,104.2
151.7173,187.2
151.7196,65.5
151.7365,21.3
151.7391,104
151.742,98.5
151.7984,574.2
151.8273,98.2
151.8422,93.5
151.8731,72
151.8808,120.5
151.8946,72.6
151.9436,692.7
151.9483,351.2
151.9532,146.5
151.9656,46.7
151.977,51.1
151.9832,52
151.9978,67.1
152.009,519.4
152.0223,11947.6
152.032,3972.5
152.0654,107.5
152.071,264.9
152.1124,18.9
152.1918,154.8
152.2011,275.8
152.2627,173.6
152.2954,92.4
152.3394,224.7
152.3515,302.3
152.3832,46.7
152.5086,152.5
152.5594,65.3
152.5678,275.1
152.5902,801.1
152.7255,780.5
152.7329,648.5
152.7803,71.5
152.9323,287.1
152.9722,713.2
152.9751,1135.6
153.0128,129.8
153.0526,21.2
153.1029,62.4
153.145,21.1
153.1527,107
153.2174,60.8
153.2432,83.2
153.302,191.1
153.3181,526.2
153.3225,97.2
153.37,93.5
153.3861,83
153.4041,237.4
153.4232,520.6
153.4427,19.7
153.4751,18
153.5325,54.3
153.5787,109.1
153.6127,536.3
153.6449,730.8
153.6985,617.6
153.7387,574.7
153.7585,101.4
153.7621,83
153.816,251.9
153.8792,99.4
153.9573,577.8
153.9834,41.8
154.0114,978.6
154.0267,890.5
154.0421,339
154.0512,381.9
154.059,3800.2
154.1502,170.5
154.1575,131.1
154.1608,456.8
154.2141,335.8
154.2268,323.2
154.2572,79.6
154.2652,150.3
154.2731,552.7
154.2972,76.8
154.3478,375.5
154.352,226.8
154.3553,794.3
154.4241,256.4
154.4363,199.1
154.4411,164.8
154.4456,431.5
154.4568,42.4
154.4658,97.7
154.4702,188.3
154.4726,506.2
154.5513,50.1
154.5903,155.7
154.6135,18.7
154.6377,103.1
154.6408,164.5
154.6533,18
154.6604,149.5
154.7068,63.8
154.7102,78.4
154.7885,78
154.8057,87
154.834,52.2
154.8435,788.9
154.893,112.5
154.9079,22.6
154.9512,96.4
154.9803,112.7
155.043,974.2
155.0495,64.2
155.0542,1955.7
155.065,573.6
155.105,360.6
155.1436,264.3
155.1667,79.6
155.3538,472.6
155.4193,50.3
155.4565,93.1
155.466,18.6
155.4931,49.4
155.5182,793.9
155.5265,126.7
155.6272,38.8
155.7222,150.3
155.8025,202.2
155.8611,759.2
155.8961,104
155.9003,87.6
155.9049,69.8
155.9114,186.3
155.9623,19.5
155.9731,110.6
156.0115,197.3
156.027,67.2
156.0425,4228.8
156.077,63645.8
156.1099,63.8
156.1207,106.4
156.1716,286.1
156.4865,121
156.5989,373.2
156.6243,74.8
156.6496,213.5
156.6561,210.9
156.6592,115.8
156.6993,91.3
156.7385,111.4
156.7547,113.8
156.7785,89.7
156.8213,602.1
156.8784,60.5
156.9357,96.3
156.9625,452.5
157.0316,457.6
157.0653,199.8
157.0803,671.9
157.0954,75.5
157.0976,34
157.144,75.7
157.1736,227.7
157.1816,78.2
157.2238,121.3
157.2717,87.5
157.2766,65.1
157.2989,95.6
157.3409,100.2
157.3945,484.2
157.4133,50.5
157.4667,750.9
157.5283,103.6
157.6008,77.8
157.631,108.2
157.6452,55.8
157.735,19.3
157.8135,17.8
157.8414,274.5
157.8776,663
158.002,453.7
158.0273,11521.3
158.1142,464.2
158.1673,59
158.188,68.7
158.2345,158.7
158.3021,98.3
158.3039,82.5
158.3138,90.7
158.3787,278.9
158.4117,46.9
158.4288,81.1
158.5077,388.5
158.5811,344
158.5914,744.6
158.6238,375.3
158.6608,702.2
158.7085,139.2
158.713,790.1
158.7348,232.2
158.7427,153.2
158.8772,744.4
158.8968,524.3
158.8987,186.3
158.9278,17.3
158.9457,725.7
158.9619,39.8
158.9643,2633.3
158.9831,186.2
158.9968,5498.4
159.0114,58.4
159.0306,119.8
159.0861,69.1
159.0918,211.2
159.1378,679.4
159.1562,57.9
159.1672,122
159.1697,213.9
159.2137,226.5
159.2365,558.3
159.2693,110.5
159.3186,363.2
159.365,113.7
159.3851,215.6
159.4608,55.7
159.4961,134.9
159.5075,73.4
159.5245,522.9
159.5741,110.8
159.5854,67.4
159.5889,423.3
159.6227,218.4
159.6544,168.7
159.6774,107.5
159.692,830.5
159.7016,50.4
159.7154,49.7
159.7817,394.5
159.8298,195.9
159.8642,49.5
159.944,67.3
159.9524,51.3
159.9822,102.4
160.0231,81.6
160.0284,78.6
160.0348,12927.7
160.0506,111
160.0607,190300.1
160.0903,521.9
160.0949,53.6
160.1328,86.5
160.1547,589.4
160.2196,396.9
160.2852,96.3
160.3304,284.6
160.3631,74.6
160.3891,497.3
160.4394,91.3
160.4532,153.4
160.4692,55.4
160.5084,63.7
160.5222,462
160.5319,635.3
160.6038,478.3
160.6329,58.6
160.6579,701.4
160.7398,102.3
160.7676,444.3
160.8424,143.3
160.9034,196.3
160.968,88.4
161.0051,403.1
161.0159,330.5
161.0268,49.8
161.0377,59.2
161.0641,8377.3
161.089,389.4
161.2536,60.4
161.3033,86.5
161.4369,18.8
161.4711,83.2
161.5021,451.9
161.5491,348.3
161.6017,129.8
161.6812,656
161.6964,45.3
161.7276,62.7
161.7711,239.9
161.8108,116.2
161.9102,218.4
161.9504,791
161.9539,96.1
161.9993,435.8
162.0505,10417.5
162.0648,63.4
162.1131,982.8
162.1889,104.8
162.1986,231
162.2063,80.7
162.2081,400.2
162.3453,56
162.3481,17.5
162.3695,595.2
162.3903,747.5
162.4426,140.2
162.4583,89.6
162.4661,223.1
162.4774,47
162.5,332.5
162.528,123.2
162.5623,62
162.5959,110.7
162.6995,470.8
162.7667,124.5
162.8204,794
162.8338,397.6
162.8605,604.4
162.8945,48.5
162.9331,160.4
162.9561,978.5
163.0163,555.1
163.0391,48.7
163.0895,817.9
163.2078,115.7
163.271,318.6
163.2814,113.5
163.326,109
163.3448,356.6
163.4116,171.7
163.6543,393
163.6564,115.1
163.6621,315.2
163.863,147
163.8774,47.2
163.896,183
163.9041,204.6
163.9074,112.1
163.9571,157.4
164.0037,67.9
164.0234,394.8
164.0298,10204.9
164.1414,17.6
164.2206,19.4
164.2737,418.9
164.2934,410.9
164.2981,172.1
164.3024,695.2
164.3989,75.8
164.449,265
164.4919,91.2
164.5119,91
164.5601,209.3
164.5946,122.3
164.6864,110.1
164.7746,627.6
164.8261,50.1
164.8656,71.6
164.9209,1945.2
164.9304,14362.6
164.9355,1267.7
164.9838,48.5
165.0147,122.5
165.05,154.5
165.1191,56.5
165.1222,251.8
165.1579,770.4
165.163,82.1
165.166,53.8
165.2698,88.6
165.2967,100.1
165.4774,541.9
165.659,495.5
165.7372,104.4
165.7755,668.2
165.8604,87.8
165.8762,65.9
165.912,425
165.9669,468.1
165.9791,1816.6
165.9881,3726.2
165.9953,62.8
166.0189,104.6
166.0843,2186
166.0864,417.1
166.0977,869.3
166.2268,320.1
166.2523,337.3
166.3052,145.6
166.3303,120.9
166.4126,16.7
166.4872,849.5
166.5582,182.4
166.6397,177.5
166.9289,99.8
166.9511,14061.6
166.9966,80.4
167.0179,195.5
167.0221,6271.5
167.0276,55.7
167.0385,221.1
167.1179,824
167.1392,535.9
167.1882,135.1
167.226,49.7
167.2547,497.6
167.3013,69.8
167.3659,95.1
167.4372,104.8
167.4418,45
167.4464,194.9
167.4999,411.5
167.5483,117.5
167.649,51.8
167.7893,65.3
167.8013,376.2
167.8316,191.2
167.8467,344
167.9038,368.7
167.9699,87.6
167.9946,1776.6
168.006,600
168.0184,98.9
168.0406,88.1
168.1155,293.9
168.214,92.2
168.3573,361
168.3996,337.9
168.4024,257.5
168.4232,111.4
168.4499,100.8
168.5064,42.9
168.5089,193.5
168.5627,788.1
168.6441,180.1
168.6681,18.8
168.6911,92.9
168.8207,468
168.8619,163.3
168.8803,57.7
168.9206,69.7
168.9493,1814.2
169.0141,114
169.0349,705
169.0587,71214.6
169.0654,991.1
169.0952,1764.1
169.1168,88.9
169.1633,177.1
169.1676,55.1
169.1896,86.5
169.2469,216.8
169.2544,230.6
169.2943,135.8
169.3023,45.9
169.3146,60.7
169.3425,55.7
169.3536,469.9
169.378,721.7
169.3851,95.6
169.4216,196.2
169.4546,66.7
169.4959,790.2
169.612,462.9
169.6469,509.4
169.693,50
169.7151,96.1
169.7459,504.9
169.7937,60.4
169.8077,104.4
169.9067,81.3
169.9863,652.3
170.033,8907.6
170.0391,64.9
170.0442,177.4
170.0622,389.6
170.0738,102.5
170.0927,13558.8
170.0999,111.7
170.156,828.6
170.1854,77.3
170.2122,525.9
170.2354,18.4
170.2579,698.2
170.2696,43.8
170.2967,68.9
170.2995,478.1
170.3045,655.1
170.3805,19.1
170.4397,596.9
170.4716,89.1
170.4806,59
170.5447,549
170.5624,88.8
170.5762,53.7
170.6105,17.7
170.6382,88.6
170.6668,220.4
170.6861,382.9
170.6995,102.1
170.8142,99.1
170.8442,114.1
170.8548,3858.2
170.8874,19.2
170.9024,677.5
170.9816,53.7
171.005,239.7
171.0134,66.2
171.0169,2221.5
171.0283,144.9
171.0354,356.4
171.0532,1603.6
171.0758,82.5
171.0824,16.5
171.0972,599.4
171.2035,633.9
171.2357,17.1
171.2731,55.1
171.3001,150.2
171.3044,191.4
171.3412,86.5
171.4046,43.8
171.4735,211.2
171.4902,94.3
171.571,120.8
171.5814,368.8
171.5888,69.5
171.6104,43.6
171.6526,65.5
171.7544,87.4
171.7875,111.1
171.8281,298.6
171.851,127.8
171.875,435.6
171.8926,156.8
171.9353,96
171.9455,84.9
171.959,538
171.9879,47.6
172.0168,121.4
172.0285,1359.7
172.0568,360.5
172.0651,44.1
172.0967,595.4
172.1081,50.1
172.1235,93.4
172.172,57.4
172.3004,22.1
172.315,47.8
172.4733,48.7
172.5229,421.4
172.6798,132.5
172.7194,53.7
172.7388,70.2
172.7406,79.3
172.7832,189
172.7918,79
172.8235,90.6
172.8518,2418.3
172.8905,408.9
173.027,438.5
173.03,528.1
173.0403,148.6
173.0968,208.6
173.1669,230.2
173.2439,677.2
173.2474,74.2
173.3366,624
173.4602,860.8
173.5689,68.9
173.6306,184.3
173.6796,218.5
173.7049,300.9
173.7128,65
173.7289,386.6
173.7369,106.7
173.7643,16.8
173.7891,258.2
173.8321,331.2
173.8613,47
173.9055,89.5
173.9428,160.2
173.9508,385.4
173.9726,181.6
173.9788,101.2
174.0243,229.5
174.035,505.2
174.0921,68.3
174.1065,478.5
174.131,47.8
174.1527,513.9
174.1563,148.4
174.2314,748.2
174.2714,522
174.3106,804.6
174.4206,80.9
174.4366,712.5
174.4489,63
174.5209,52.4
174.5846,344.3
174.6866,454.3
174.692,71.9
174.7016,335.5
174.7308,117.9
174.7698,118.6
174.7751,17.8
174.8152,112.6
174.8241,148.3
174.8366,85.9
174.9213,362.1
174.9386,921
175.0022,733
175.0046,47.5
175.0169,191.4
175.0311,115.8
175.0346,2428.9
175.0426,701.5
175.0457,3078
175.0541,147.8
175.0785,179.7
175.0801,227
175.1193,68326.4
175.2964,445.7
175.3064,20.3
175.4583,88
175.4969,97.3
175.5306,160
175.5388,217.1
175.5764,212.3
175.5801,157.5
175.6083,60.2
175.6607,368.5
175.7104,92.3
175.8126,152
175.8179,152
175.9561,99.2
175.9603,501
176.0088,4589.5
176.0403,280.1
176.0662,12626.2
176.1033,551.9
176.1219,66.2
176.1805,83.8
176.1832,318.7
176.1887,345.7
176.1998,48.3
176.2251,49.6
176.2594,63.8
176.2859,17.9
176.3548,479.9
176.3574,131.5
176.3951,64.8
176.4073,746.4
176.4133,180.5
176.4449,58
176.4552,745.5
176.5125,638.8
176.5304,44.6
176.5841,526.6
176.7178,406.5
176.7206,126.6
176.7251,47.1
176.7582,123.5
176.7867,50.2
176.8169,80.7
176.8611,50.8
176.894,154.7
176.9921,1385.3
177.0077,547.7
177.0251,3691.1
177.0377,104.3
177.0615,4163.8
177.0694,382
177.0873,92.5
177.1115,110.3
177.1188,68.8
177.1486,51.4
177.3623,118.3
177.3854,442
177.4905,204.3
177.74,20.9
177.9173,64
177.9271,45.6
177.9493,773.5
178.0006,49.6
178.0091,11751.1
178.0245,5326.7
178.0591,6228.1
178.0616,802
178.3092,43.9
178.4214,679.1
178.4257,514.7
178.4987,216
178.5184,577.2
178.5277,288.5
178.5803,117
178.5985,141.9
178.6027,132.7
178.691,705.1
178.7492,798.7
178.8423,21.4
178.8524,797.1
178.8606,89.2
178.9416,101.4
178.964,118.8
179.0117,301.4
179.0612,531
179.0662,86.5
179.0734,568.2
179.1718,75.9
179.1777,1085.4
179.2488,485
179.3151,307.6
179.3182,63.3
179.3721,18
179.4606,18.6
179.5015,71.4
179.5303,95.1
179.7128,319.2
179.7337,81.7
179.7761,297
179.8104,19.2
179.8433,68
179.8609,205.4
179.8686,88.3
179.8772,530.1
179.9731,104.5
180.0038,7572.9
180.0161,272.5
180.0277,68.7
180.0651,60.6
180.1576,66
180.1744,471.4
180.2257,82.3
180.2548,96.8
180.3011,128.9
180.3303,93.7
180.3758,86.7
180.464,117.5
180.6056,162.6
180.6093,254.8
180.6343,74.5
180.648,83.4
180.7059,194
180.7252,313.6
180.8294,116.7
180.8448,98.1
180.8701,64.3
180.8948,2141.4
180.9044,6417.5
180.9501,580.3
180.9561,45.6
181.0262,52.3
181.0653,8612.3
181.0702,74
181.076,86.8
181.1742,601.8
181.3281,109.8
181.4823,58.1
181.5421,769.5
181.7086,132.7
182.0136,283.7
182.0381,429.7
182.0428,44835.5
182.1008,240.2
182.1707,127.9
182.3039,767.2
182.3299,186
182.348,122.7
182.374,467
182.3996,55
182.4161,67.9
182.5659,48.3
182.7186,63.2
182.7219,241.6
182.7346,122.2
182.7417,266.6
182.7602,58.2
182.7844,145.1
182.7964,97.6
182.8503,59.2
182.9027,56.1
182.924,478.6
182.9994,586
183.0446,1860.7
183.098,98.9
183.1158,280.4
183.1416,243.1
183.2206,43.8
183.5593,537.5
183.6597,17.1
183.7561,295.8
183.9649,1027.8
183.9938,112.2
184.0656,210.6
184.0738,2229502.8
184.0791,179.8
184.1111,264.4
184.1699,27
184.1822,879.7
184.2575,552.2
184.3157,117.7
184.329,188.2
184.3827,20.6
184.4339,83.2
184.4747,486.8
184.521,70.1
184.5394,73.1
184.7425,625.8
184.7584,47.4
184.7731,82.9
184.792,723.7
184.8652,415.4
184.9106,799.1
185.0327,85569.3
185.0377,65
185.0704,1487.4
185.0771,98561.9
185.0802,1014.6
185.1273,59.4
185.1702,130.6
185.1791,294.5
185.2642,648.1
185.3692,54.3
185.454,15.9
185.4669,370.2
185.498,113.3
185.5153,797.3
185.543,62.6
185.7418,180.4
185.7753,196.2
185.9331,84.7
185.9497,518.6
185.9601,691.1
186.006,60.6
186.0164,47.8
186.0357,786.7
186.0547,100.6
186.078,13847.7
186.1181,117.7
186.2122,70.3
186.2535,644.2
186.3306,356.8
186.4052,61.6
186.4524,356.7
186.5331,93
186.7031,153.1
186.826,176
186.9122,576.2
186.9591,94.6
187.0199,636.6
187.0308,3087.2
187.0376,47.2
187.0454,72.3
187.0582,3669.9
187.0718,802.8
187.2015,162.3
187.2117,102.5
187.2636,98.9
187.3147,126.3
187.3387,45.5
187.4243,55.3
187.4655,577.4
187.4765,164.8
187.5216,71
187.5285,357.3
187.6197,297.7
187.7308,717.8
187.7514,474.8
187.8123,963.3
187.8428,54.4
187.8977,382
187.9215,700.4
187.993,100.1
188.0759,783.9
188.0796,452.1
188.1015,479.1
188.2278,136.5
188.3582,67
188.4433,373.2
188.4464,47.4
188.4772,191.2
188.5217,301.7
188.5987,54
188.6236,609.9
188.6804,49.5
188.9509,440.6
189.0149,83.5
189.0325,63.4
189.0616,2599.2
189.0874,4922.1
189.1085,145.9
189.1361,63.4
189.1513,287.7
189.1734,152.8
189.1864,308.6
189.3147,118.7
189.46,124.5
189.5186,189.6
189.5354,49.6
189.5408,174.4
189.5952,149.8
189.6242,182.5
189.7841,859.5
189.8222,132.5
190.0089,176.3
190.03,151.6
190.0379,87.2
190.0505,74.6
190.1297,184
190.1672,369
190.1874,75.1
190.2238,49.2
190.2389,59.3
190.2489,79.1
190.2785,301.1
190.2911,18.1
190.5147,48.9
190.5421,89.5
190.656,63.1
190.7404,19.2
190.9126,616.4
190.9447,53.5
190.9838,20
191.0086,2006.8
191.0194,116.8
191.0408,84514.4
191.0536,96.1
191.0772,11057
191.1136,113.5
191.1165,67.5
191.2078,62.4
191.2178,76.2
191.2576,761.5
191.307,66.3
191.3463,49.1
191.3587,777.7
191.4386,66.6
191.4806,594.7
191.626,229.3
191.6946,115.7
191.7477,550.5
191.7985,527.7
191.8511,99.3
191.9609,112.7
192.004,561.2
192.0142,453.5
192.0403,8620.3
192.0443,1712.2
192.1684,101.4
192.1771,760.6
192.2308,512.8
192.2372,361.9
192.3047,98.6
192.3199,19.2
192.3377,876.7
192.3483,680.4
192.401,87.1
192.4334,571.4
192.4726,286.7
192.5025,136
192.5477,60.5
192.6937,42.8
192.7554,184.8
192.7853,689.9
192.8185,273.9
192.8515,275.8
192.8664,923.9
192.9088,153.3
192.9203,47.8
192.9605,119.2
192.9857,69.9
192.999,1751.6
193.0356,1453.2
193.0892,749.8
193.2584,133.9
193.3313,57.1
193.4093,386.6
193.5136,192.8
193.668,102.2
193.6785,120.3
193.7019,68.2
193.8119,110.4
193.8497,125.4
193.8719,455.3
193.8902,89.5
193.9024,664.6
193.943,65.2
193.9987,1438.6
194.0053,70.3
194.0076,269.9
194.0333,2859.3
194.1546,52.5
194.1669,45.6
194.1744,429.3
194.232,460.5
194.3331,187.2
194.3971,59.5
194.4377,69.3
194.5484,18.3
194.5987,449.8
194.6486,82.3
194.689,959.4
194.7008,221.9
194.7099,946
194.7375,69.9
194.8879,85.8
194.8892,87.7
194.9604,547.6
195.0158,1006
195.0446,256.1
195.0948,252.5
195.1113,54.3
195.1497,67.3
195.1595,913.1
195.1753,382.6
195.2011,154.8
195.2046,48.3
195.2466,20.1
195.3226,487.5
195.3819,575
195.4202,552.4
195.4413,68.1
195.505,112.2
195.5463,101.5
195.5777,49.4
195.6877,252.9
195.8038,251.9
195.9147,713.8
195.9342,107.7
195.9381,83.9
195.9722,115.4
195.9776,1184.4
196.08,144.5
196.17,625.1
196.1946,310.5
196.3795,136.8
196.4078,52.7
196.4789,252.9
196.5462,191.5
196.5941,235.1
196.7254,76.5
196.7314,366.8
196.7715,821.1
196.8127,196.2
196.8656,4141.2
196.8689,536.1
196.8723,91.5
196.8784,1991.1
196.9273,45.3
196.9526,108.5
197.0237,187.9
197.0278,42.4
197.1011,1433.4
197.1368,164.5
197.1533,189.7
197.2511,43.7
197.2929,701.2
197.3152,85.7
197.3598,124.5
197.3872,52.7
197.3956,193.1
197.4185,210.8
197.4262,17.4
197.4582,102.4
197.4992,153.7
197.5134,80.8
197.5969,51.6
197.6498,119.3
197.6996,106.1
197.802,117.1
198.0079,145.7
198.0533,539.8
198.0854,6046.7
198.1226,123.7
198.1332,415.8
198.1857,11087.1
198.1996,818.9
198.2234,123.1
198.2616,84
198.2824,157.7
198.3533,135.1
198.4344,702
198.4389,74.4
198.443,672.4
198.5737,46
198.7269,70.6
198.8626,4486.2
198.9039,19
198.948,106.9
199.0204,90.6
199.03,86.2
199.039,70.6
199.057,155.3
199.0692,75.9
199.076,3085.3
199.0805,24.7
199.134,123.1
199.1707,537.5
199.1891,400.6
199.2174,130.5
199.4281,706.3
199.4452,79.9
199.4738,72
199.5631,937.3
199.5889,551.7
199.6746,103.8
199.6903,598.3
199.6997,71.6
199.7103,494.1
199.7131,146.3
199.7184,170.9
199.7623,90.6
199.7701,18.9
199.7743,198
199.791,17
199.8092,675.1
199.8757,611.1
199.881,48
199.9051,21.3
199.9287,73.5
199.9911,26796.6
200.0318,62.1
200.0412,10899
200.0477,89.1
200.0514,188.3
200.0604,852.4
200.0819,138.3
200.1291,3349.4
200.1319,3715
200.1343,3460.6
200.2058,23.1
200.2519,83.1
200.2646,821.3
200.2947,78.3
200.3873,83.4
200.4258,144.9
200.5047,268.6
200.6033,57.3
200.7696,90.7
200.8487,753
200.8596,500.8
200.8858,196.6
201.0004,488
201.0136,1282.2
201.0551,300.5
201.0633,89.6
201.0873,89
201.129,714.4
201.1995,66.6
201.2057,100.7
201.2795,167
201.3264,95.9
201.4432,59.1
201.4449,68.2
201.5162,116.7
201.5895,769.5
201.7018,231.4
201.7849,441.4
201.8397,443.9
201.8776,147.1
201.9073,283.1
202.0481,623.9
202.0961,574.2
202.1141,149.2
202.1248,94.4
202.173,109.2
202.1995,105.9
202.2247,330.7
202.2408,216.9
202.2975,214.4
202.3119,134.7
202.3725,18.4
202.4447,318.9
202.5027,13669.3
202.5186,52.9
202.5291,121.6
202.6059,53.3
202.6826,350.9
202.7321,270.4
202.7401,104.1
202.928,635.9
203.0321,2141.8
203.0531,828420.3
203.0773,9663.2
203.1033,108.3
203.1284,502.7
203.1476,106.4
203.1658,54.5
203.3124,240.9
203.3342,97.3
203.4812,549.3
203.5084,318.7
203.9097,678.8
204.0016,191.1
204.0248,60619.1
204.0565,42310.2
204.087,123.4
204.146,99.2
204.1851,184.1
204.2637,16.4
204.347,99.7
204.3569,60.7
204.3709,120.8
204.4059,700.3
204.4187,66.5
204.4256,54
204.4688,609.3
204.5284,104.4
204.535,200.2
204.5478,99.4
204.5637,81.1
204.5821,63.1
204.693,61.6
204.7114,119.7
204.8423,164.7
204.9299,48.2
204.9603,735.2
205.0131,58.5
205.0284,472.8
205.0415,705.8
205.0575,5327.7
205.0688,25244.8
205.084,25.4
205.1171,17.6
205.1227,21.1
205.205,160.4
205.2581,16.9
205.2969,584
205.3818,99.2
205.3857,77.9
205.5078,822.8
205.5328,54.6
205.6472,220.8
205.6525,407.4
205.7061,51
205.7113,358.4
205.7797,99.6
206.0661,230.9
206.1684,406.6
206.1767,56.7
206.1819,615.3
206.2052,552.1
206.2266,100.5
206.233,612.6
206.2833,155.7
206.297,190.5
206.4008,18.6
206.425,304
206.504,149.5
206.5851,93
206.6027,327.9
206.6395,43.7
206.6983,370.2
206.7472,483.9
206.8765,274.6
206.8944,12574.5
206.909,563.5
206.9123,52.6
206.9767,200.5
206.9828,1740.4
206.9996,455.8
207.0148,61329.3
207.0216,507.9
207.0364,85.9
207.0447,4534.9
207.0512,5318.7
207.1677,53.7
207.1684,52.7
207.1756,74
207.1799,71.6
207.2005,61.6
207.2621,324
207.29,89.6
207.3404,68.7
207.5351,148
207.569,468.1
207.6039,92.4
207.6223,417.7
207.6694,101.2
207.7907,145.5
207.8385,325.8
207.8777,55.5
207.9025,124.4
207.9392,74.3
207.9463,104.9
207.9595,231.5
207.9909,189.6
207.9953,776.2
208.0142,1437.4
208.0179,1012.8
208.1358,67.8
208.1614,86.4
208.2423,471.7
208.2615,688.7
208.2658,177
208.3085,350.7
208.4886,93.9
208.5587,253.8
208.676,48.1
208.6927,608.4
208.7085,207.6
208.7429,52
208.7743,665.3
208.8049,58.8
208.8185,855.1
208.8858,110.9
208.8915,7438.4
208.9361,610
208.9552,21.2
208.9894,43
209.0129,1411.1
209.0945,87.9
209.0984,84.5
209.1492,253.7
209.2282,221.5
209.231,268.3
209.2825,74.5
209.4306,172.6
209.4518,45.4
209.4577,227.7
209.9857,92.8
210.1237,19.7
210.6723,61.5
210.7629,99.8
210.8455,94.2
210.9468,398
210.9584,207
210.9656,52.5
211.0565,354.1
211.0694,607.7
211.0775,790.7
211.1287,413.3
211.1679,217.9
211.1716,1315.1
211.1766,5344
211.1814,18076
211.1843,23527.8
211.1874,30854.2
211.1885,31261.4
211.1916,23221.3
211.1961,4585.9
211.2029,318.8
211.2218,715.7
211.2729,543.8
211.2829,875.8
211.3129,18.2
211.3266,132.8
211.5543,60.4
211.5712,157.8
211.648,74.3
211.6613,79.3
211.7066,56.8
211.7376,767.8
211.8574,54.8
212.0542,63.2
212.0744,80.2
212.1331,244.3
212.1374,58.1
212.149,20
212.1733,151.7
212.177,175.3
212.1982,97.4
212.2504,374.7
212.2959,365.7
212.3158,134
212.431,178.2
212.4361,317.3
212.5343,527.6
212.5647,23.6
212.5765,513.3
212.7515,51.5
212.7731,162.7
212.7861,84
212.7973,105.4
212.8397,1582.6
212.8712,732
212.9409,50.9
212.9805,443.5
213.0552,1219.6
213.0698,89.2
213.0779,717.4
213.1258,130.8
213.2391,223.6
213.2881,133.4
213.2896,153.9
213.2908,176.7
213.3005,23
213.3294,19.4
213.3417,75.3
213.3493,102.9
213.4566,24.5
213.5586,288
213.5632,17.4
213.5692,53.5
213.5874,537.7
213.7142,47.5
213.7737,560.6
213.7825,103.9
213.7961,186.4
213.7994,99.7
213.8227,901.5
213.8411,169.9
213.9628,344
213.9851,238
214.033,155.1
214.0594,11522
214.0902,1985.5
214.1075,96.1
214.1692,101.8
214.463,84.2
214.5148,141.5
214.6172,352
214.6222,301.7
214.6438,686.6
214.8366,974.2
214.8707,296.1
214.875,45.3
214.913,655.8
214.918,91.4
214.9655,46.9
214.9952,226.7
214.9983,224.8
215.0679,362.7
215.0937,78.3
215.1399,73.2
215.1841,89.3
215.2435,159.2
215.3025,101
215.3113,887.2
215.326,701.5
215.3874,84.4
215.4268,895.3
215.4429,501.4
215.4537,56
215.4891,127.5
215.5133,55.5
215.5738,17.8
215.5797,207.8
215.6016,68.4
215.6135,55
215.6163,350.1
215.6179,286.4
215.642,63.6
215.6877,59.9
215.7198,600.3
215.7719,20.2
215.7962,52.4
215.8268,749.3
215.9071,71.1
215.9651,610.3
215.9711,407.8
216.0151,5288.4
216.0839,505.8
216.0877,74.5
216.2226,94.4
216.33,684.3
216.4025,588.9
216.431,613.8
216.4344,62.3
216.5544,125.6
216.5721,104.7
216.6874,21.7
216.8156,236.4
216.9233,29407.3
216.978,79.6
216.9839,166.3
217.0105,457.8
217.0255,107.6
217.0341,45.7
217.0511,195
217.0563,595.6
217.0723,259.4
217.0823,1001.9
217.1031,120.1
217.1142,46.6
217.1258,170.3
217.2146,94.8
217.2323,135.4
217.4138,104.8
217.4764,225.2
217.5142,40.8
217.5386,98.6
217.6593,963.1
217.6638,17.9
217.8013,860.3
217.8895,274.6
217.9401,349.3
217.9829,100.4
218.0049,762.4
218.022,316.2
218.0447,71.8
218.0536,433.9
218.0845,323.8
218.152,61.6
218.2067,810.5
218.2467,603.6
218.3093,110.4
218.4627,63.9
218.4819,68.9
218.5547,129.7
218.7198,191.6
218.7531,216
218.8579,263.3
218.9203,9507.2
218.9305,110
218.9434,700.6
219.0271,1055746.6
219.0835,3526
219.0953,63.2
219.1536,42.3
219.2209,64.8
219.2404,454.7
219.2958,289.2
219.3638,834.2
219.435,92.5
219.4565,657.9
219.5228,210.5
219.5571,115.8
219.6118,207
219.7453,190.5
219.7503,365.6
219.754,51.7
219.8209,324.1
219.8357,166.1
219.999,1262
220.0304,55654.1
220.0376,2079.4
220.0675,3246.3
220.0884,114.7
220.1545,161.2
220.1557,250.9
220.1567,263.4
220.1676,337.2
220.248,46.8
220.298,20.8
220.3012,72.4
220.4088,67.9
220.5061,106.6
220.5599,101.8
220.5672,83.2
220.5963,52.6
220.6504,312.8
220.7198,455.8
220.7517,97.8
220.7947,57.9
220.9354,34.8
221.0252,60853.1
221.0314,8171.7
221.0427,17551.9
221.0513,1083
221.0607,268.5
221.0811,317.8
221.0864,176.5
221.0881,269.1
221.2163,953.8
221.282,523.7
221.2875,397.4
221.3651,791.2
221.37,48.7
221.3923,97.7
221.4243,47.2
221.5231,126.7
221.6265,222
221.6689,136
221.6712,18.4
221.7486,78.2
221.7548,401.4
221.8548,232.6
221.8978,93.2
221.9365,880.6
221.9567,111.5
221.9783,134
221.9843,1724.1
222.0283,556.3
222.0913,409.4
222.1725,489.7
222.2125,204.9
222.3352,109.2
222.3537,975.5
222.381,20.4
222.4774,907.1
222.5312,51.3
222.559,211.2
222.6206,58.6
222.6356,88.1
222.6371,93.2
222.6763,253.3
222.6975,87.6
222.7615,388.3
222.7816,219.8
222.8325,131.1
222.8483,467
222.8685,9644.7
222.8796,408
222.8891,605.3
222.8993,20.9
222.9261,58.1
222.9481,89.2
222.9546,110.2
222.9888,9511.4
223.0289,404.1
223.0371,1321.4
223.0404,741.1
223.2099,85.7
223.2759,415
223.2863,72
223.4137,56.5
223.4217,408.6
223.5566,204
223.6675,409.4
223.6937,672.4
223.713,597.4
223.7163,67
223.8877,103.7
223.9398,193.3
223.9534,21.8
223.9598,92.6
223.9861,44.9
224.003,203.4
224.2012,503.6
224.3508,469.3
224.3919,530.2
224.4282,86.6
224.4756,50.6
224.5788,181.7
224.5892,124.5
224.6689,301.5
224.7932,132.7
224.8654,5491.1
224.8905,449.2
224.9122,85.3
225.0037,137
225.0351,63.7
225.0552,39536.4
225.0751,113.3
225.0851,113.2
225.3457,96.5
225.3947,65.5
225.4341,546
225.4378,502
225.4673,286.1
225.6205,84.3
225.7351,444.1
225.784,46.8
225.8354,87.4
225.8372,85.8
225.8712,189.7
225.9523,26.7
225.9576,551.7
226.0026,72.1
226.0068,933.4
226.0247,4409.6
226.0457,2432.1
226.0586,602.6
226.0982,198.7
226.1969,552.8
226.3276,566.1
226.3764,51.4
226.4341,125.5
226.4659,64.6
226.5169,365.1
226.6828,48.3
226.8317,48.6
226.8415,578.4
226.873,609.6
226.9093,54.8
226.9521,13275.6
227.0203,19.6
227.0345,2970.1
227.0802,1266.4
227.0867,43.9
227.1948,44.4
227.2649,96
227.2698,250
227.3009,53.1
227.3271,218
227.6914,91.6
227.7504,97.1
227.8162,18.5
227.8494,19.5
227.8888,148
227.923,109.2
228.0006,233
228.1418,197.8
228.2469,725.6
228.2714,50.2
228.3649,664.2
228.4949,353.3
228.5086,108.2
228.5097,108.4
228.5469,46.8
228.5725,42
228.6039,50.1
228.6067,317.9
228.6543,459.4
228.6595,221.9
228.666,44.6
228.6993,122.1
228.7643,81
228.8886,611.5
228.9918,1866.6
229.0498,57.2
229.0772,307.9
229.1124,388.2
229.1465,193.1
229.1503,50.4
229.1865,23.9
229.2763,665.6
229.3786,414
229.4159,372.9
229.4456,502.9
229.612,201.7
229.6275,670.1
229.7469,220.9
229.9016,351.2
229.9492,336.7
229.9574,255.2
229.9707,204.2
229.9944,236.5
230.0339,234.3
230.0827,236.4
230.1942,586.5
230.2242,75.4
230.2555,18.6
230.3234,172
230.6205,87.1
230.7194,491.4
230.7245,174.7
230.7463,713.8
230.7518,188.5
230.7584,51.3
230.7833,79
230.8012,125.6
230.8904,44.4
230.914,528.7
230.9557,80
230.9601,115.7
230.991,29.5
231.0172,115.7
231.0562,1245
231.0842,1530
231.1095,447.7
231.1451,80.2
231.2142,823.3
231.4376,112.7
231.4466,64.7
231.5163,23
231.8097,187.8
231.9001,325.2
231.9957,106.1
232.0101,74
232.1073,83.5
232.3655,41.4
232.4087,641.8
232.4306,113.7
232.6256,75.6
232.6508,206.3
232.7125,901.7
232.7999,160.5
232.815,52.3
232.8583,91.3
232.8973,24238.3
232.9239,159.3
232.9498,104.7
232.9753,46.2
232.9862,3377.2
233.0515,11262.3
233.0636,29.7
233.1798,63.9
233.2443,631.5
233.3406,205
233.3972,51.1
233.5002,551.1
233.5931,18.2
233.6516,510.3
233.6803,21.1
233.6929,94.2
233.7768,54.3
233.8106,158.6
233.8405,647.8
233.9335,121.8
233.966,39.1
234.0166,354.2
234.1565,47.3
234.1686,103.2
234.3044,126.9
234.3811,87.1
234.4382,827.7
234.6129,48.1
234.7639,460
234.7701,697.9
234.8148,90.2
234.8941,6002.2
234.9038,584.5
234.9244,69
234.982,2622.9
235.0007,63.5
235.0568,448.7
235.067,1898.4
235.0931,5673
235.1021,73.8
235.1091,315.3
235.192,112.8
235.2103,207.2
235.2217,364
235.328,523.7
235.4201,57.4
235.6082,72.2
235.6366,46.6
235.6901,242.7
235.7101,112.7
235.7242,982
235.7434,63
235.7738,60.8
235.8103,69.9
235.9337,98.1
236.0125,892.1
236.0417,2179.9
236.0722,39982.5
236.0776,339.4
236.1118,140.8
236.3601,482.1
236.405,230.5
236.4335,111.1
236.4568,483.2
236.4753,571.1
236.6161,44.8
236.6668,419.7
236.6993,201.9
236.703,557.3
236.7398,119.5
236.7623,60.9
236.7664,79.6
236.8032,192.2
236.8094,511.2
236.8326,73
236.8474,352.4
236.9436,86.5
236.9663,269
236.9859,42.3
237.0531,64.2
237.0755,850.5
237.0984,104.2
237.2159,308.5
237.7431,746.2
237.792,202.6
237.8741,95
237.8946,64.8
238.0678,252.8
238.1734,52.5
238.1917,489.2
238.3011,21
238.3262,110.2
238.3378,210.7
238.354,195.4
238.3991,90.4
238.4042,363.7
238.4248,183
238.5333,353.8
238.535,381.4
238.5364,434.6
238.5501,106.8
238.6037,572.3
238.6427,153.4
238.7004,93.6
238.7091,20.4
238.7284,61.7
238.8182,58.8
238.8267,143.1
238.8423,4409
238.8663,476
238.9573,373.4
238.9842,105.4
238.9861,87.7
239.0096,598.6
239.047,89.7
239.0505,254.9
239.0643,732.4
239.0686,1430.8
239.158,86.7
239.1623,111.6
239.2054,694.7
239.3563,21
239.3869,20
239.3909,237.6
239.4332,798.8
239.4928,89.8
239.5243,132.3
239.5588,101.8
239.5657,64.6
239.6059,584.8
239.6502,404
239.6986,314.9
239.7142,96.2
239.786,74.5
239.9061,91.5
240.0036,449.1
240.0207,795.3
240.032,533.4
240.0543,59.6
240.0994,86
240.1169,102.8
240.1595,47
240.2171,126.7
240.3377,257.5
240.3492,725.2
240.3903,46
240.4297,66.3
240.5053,169.6
240.7618,502.9
240.8398,1653.1
240.9114,113.7
240.95,90.7
240.9932,51.3
241,234.6
241.0501,139.4
241.0818,360.7
241.211,89.8
241.269,188.7
241.3017,21.1
241.3188,796.6
241.3231,643.6
241.4497,53.2
241.4996,294.7
241.7487,203.5
241.7574,46.5
241.9453,100.3
241.9693,116.8
241.9796,167.5
241.9989,971
242.0194,1913.7
242.2436,200
242.4122,55.1
242.4416,187.4
242.6113,46.6
242.6258,91.7
242.6494,262.7
242.7199,213.7
242.7216,245.5
242.7886,53.7
242.8574,168.4
242.8876,53.2
242.926,5319
243.0069,375.1
243.0308,201.5
243.0327,201
243.0536,10169.9
243.0659,18316.3
243.0828,59.4
243.2132,710.7
243.323,123.4
243.3414,67.6
243.3503,78.7
243.4648,764.6
243.5287,196.9
243.5639,103
243.5704,18.2
243.7096,198.4
243.9527,282.5
243.9733,266.8
244.006,882.9
244.0132,264.9
244.0577,81
244.0686,146.7
244.08,532.8
244.0832,82.7
244.164,55.9
244.4747,271.2
244.5206,492.9
244.5596,63
244.678,158.8
244.686,57.8
244.7166,58.3
244.7769,103.2
244.8713,3428.1
245.006,26.3
245.0449,47.5
245.0534,1026.1
245.0721,226.4
245.1229,56.7
245.6762,592.3
245.7497,68.9
245.8174,46.3
245.8311,547.1
245.9951,93.4
246.002,59.8
246.0066,83.1
246.0112,29.1
246.2117,135.6
246.4067,64.4
246.4225,131.9
246.4485,129
246.5743,556
246.5895,513.1
246.6678,155.7
246.8308,276
246.9316,485.3
247.0371,805.7
247.0588,1503.7
247.0672,2549.7
247.0932,7782.6
247.1033,21.5
247.1093,264.4
247.1949,72.2
247.3014,120.1
247.5568,146.2
247.853,60.7
247.8708,238.3
247.9391,117.1
248.0964,22.8
248.1135,95.3
248.1247,8956.3
248.5099,402.8
248.5344,127.3
248.6458,305.4
248.8712,5314
248.9167,397.2
248.9601,2715
249.0167,759.1
249.0373,103.9
249.0618,7246.3
249.1089,83.7
249.1652,21.8
249.2018,214.3
249.2738,94.2
249.5399,81.7
249.6839,374.2
250.0378,136.7
250.0417,86.8
250.1336,202.5
250.4232,61.7
250.4714,76.2
250.4914,360.2
250.5554,240.2
250.6197,82.6
250.6498,97.1
250.6616,94.9
250.6946,97.2
250.7554,61.3
250.797,961.5
250.8121,557.6
250.8355,67.7
250.868,1215.3
250.9214,911.9
250.9562,404.9
251.0006,29.6
251.0345,1532.5
251.2066,51.5
251.23,98.2
251.2681,177.2
251.3088,117.2
251.321,496.6
251.4162,107.6
251.4289,17.8
251.5301,133.3
251.5796,58.4
251.7003,19.8
251.7625,549.2
251.7851,563.7
251.9004,57.9
251.904,101
251.966,512.9
251.9969,491.4
251.9988,788.8
251.9998,766
252.0358,1250.1
252.0462,82001.1
252.1004,59.7
252.115,144.9
252.1458,19.9
252.1716,135.3
252.5028,54.6
252.5214,43.4
252.5941,750.7
252.637,411.9
252.723,113.7
252.7518,330.8
252.7716,47.5
252.8293,19.4
252.9139,444.5
252.9175,433.9
252.9765,85.8
253.0495,2758.1
253.0793,72.9
253.1375,520.4
253.4141,48.1
253.5093,57.8
253.5228,382.3
253.574,115.9
253.8343,250.8
253.8854,258.7
253.9226,232.1
253.9317,145.9
254.0283,562.8
254.044,2879.3
254.0856,241.2
254.1216,22.9
254.1683,296.6
254.201,226.1
254.2668,209.7
254.277,56.5
254.2913,102.7
254.3014,895.8
254.6319,563.3
254.6579,191.6
254.8162,673.2
254.8244,5441.7
254.9403,505.5
254.9556,968.5
255.0074,64.5
255.0117,289.4
255.0334,19158.6
255.0384,572.3
255.0469,2030
255.0513,115.5
255.1564,663.2
255.1621,18.7
255.1939,109.4
255.234,20.1
255.2673,60.3
255.6324,173.5
255.7055,938.6
255.7321,715.4
255.8211,988.7
255.9171,222
256.0067,226.8
256.0225,106.2
256.0369,116.2
256.0458,55.4
256.0585,117.5
256.1667,614.1
256.1776,22.2
256.2181,84.2
256.2546,67.2
256.5964,46.6
256.6989,338.2
256.7412,352.2
256.8132,418.4
256.8214,6220.7
256.8596,322.5
256.9374,503.3
257.0492,5312.8
257.0661,1414.4
257.0751,42972.8
257.1187,88.9
257.1284,77.3
257.1422,101.3
257.1832,69.3
257.2783,649.1
257.3076,152.3
257.3183,66.1
257.5589,322.6
257.6956,66.9
257.8378,97.7
257.8771,152.5
257.8824,50.4
257.9489,170.1
258.0306,892.4
258.056,99.4
258.0723,254.5
258.0785,658.9
258.1108,14971.5
258.1886,151.9
258.1962,119.8
258.2555,301.5
258.2896,92.2
258.4272,91.9
258.5564,17.6
258.6301,307.6
258.6658,106
258.6674,149.7
258.6689,168.3
258.7083,256
258.7741,86.3
258.8185,2241.2
258.8369,373.6
259.1402,592
259.1632,97.2
259.208,464.3
259.2711,488.4
259.3278,78.2
259.3412,676.2
259.3835,169.7
259.4869,261.2
259.5059,596.4
259.5134,259.3
259.5335,113.1
259.565,115.6
259.5745,46
259.5959,83.5
259.6052,155.5
259.6148,22.5
259.7178,919.9
259.8732,384.1
259.9343,264.7
260.0402,815.5
260.1092,470.5
260.144,67.7
260.3116,639.9
260.4745,21.7
260.5686,574
260.578,47.4
260.5951,96.3
260.6223,460.8
260.6526,139.1
260.7797,109.1
260.7946,534.2
260.8159,531.3
260.8453,2584.7
260.8773,316.6
260.9497,4486.4
260.9968,50
261.0388,61.1
261.0465,317.5
261.0702,95.4
261.0759,118.6
261.1092,117.9
261.1673,73.3
261.4507,108.3
261.4599,89.2
261.515,505.4
261.5214,771.8
261.7182,204.9
261.8477,225.4
261.86,462.6
261.9421,125.2
261.9658,112.6
261.9918,83
262.2716,555.6
262.2811,180.9
262.395,500.4
262.4377,102.1
262.5157,58.8
262.5871,419.2
262.7163,93.9
262.7364,83.6
262.792,162.9
262.8324,252.1
262.8646,96.1
262.9956,90.5
263.009,21.2
263.014,950.9
263.0266,46.6
263.0632,62.2
263.0855,1184.2
263.177,772.6
263.3297,76.4
263.4777,40.8
263.5574,179.8
263.5852,152.5
263.645,70.1
263.7461,266.5
263.7544,112.4
263.8711,19.1
264.1203,645.3
264.1309,376.1
264.1365,19
264.1773,119.5
264.1849,102.4
264.2693,103.6
264.3483,218.7
264.5164,65.4
264.5268,162.7
264.5307,70.7
264.5786,100.6
264.784,54
264.8451,713.7
264.8531,2944.9
264.9054,377.1
264.9342,5336.4
264.989,3115.9
265.0165,65.4
265.0238,441.9
265.0357,5189.2
265.0479,2582.5
265.0652,456.8
265.1061,557.1
265.2531,21.5
265.4157,146.6
265.4432,143.4
265.6362,120.6
265.6432,448
265.8005,75.6
265.8733,175.6
265.9228,271.1
265.9464,25.3
265.9643,95.3
265.9878,50.6
265.9986,444.3
266.0579,108.4
266.0775,113.5
266.2365,104.6
266.3715,48.7
266.4398,208.2
266.4838,557
266.5918,523.6
266.6703,109.5
266.7107,503.8
266.7692,51.4
266.8504,1935.5
266.8948,1014.6
267.0139,45.6
267.1762,285.6
267.2058,448.3
267.3822,105.1
267.5269,444.8
267.5319,304
267.5771,727.8
267.6022,286.7
267.7751,150.8
267.8016,196.7
267.8908,56.5
267.9941,30.7
268.0018,70
268.0324,203.9
268.0373,277.1
268.0564,759.9
268.0726,381.4
268.1536,69
268.2279,53.4
268.2422,55.9
268.6779,502.7
268.8821,68.6
268.892,514.4
268.9095,81.8
268.9125,173.7
269.0094,359.9
269.0336,339.4
269.0359,272.9
269.0454,25631.1
269.0492,38004.6
269.1973,688
269.2205,378.8
269.2273,60.8
269.2732,382
269.3557,213.4
269.4536,492.9
269.4691,375.3
269.4809,97.9
269.5977,726.5
269.8194,842.5
270.0253,1441.8
270.048,23871.7
270.1454,204.2
270.1811,97.1
270.3019,615.9
270.5334,652.2
270.5573,517.1
270.6221,81.8
270.7015,546.9
270.7359,813.8
270.7985,2893.4
270.8091,807.3
270.881,66.8
270.9076,534.6
270.9416,122.3
270.9785,7768.7
270.9884,612.2
270.9958,96.8
271.0246,1220.1
271.0513,1111.8
271.0783,1363
271.0843,176
271.0909,1082.7
271.1237,46.3
271.1425,155.7
271.3049,861.9
271.3137,465.1
271.3353,231.5
271.3898,344.2
271.6221,129.2
271.642,139.6
271.7476,168.6
271.8325,117.4
271.8479,104.8
271.9658,508.9
272.0201,23.3
272.0436,70.2
272.0621,128.3
272.0809,208.7
272.1129,66.4
272.1453,83.4
272.2414,410.6
272.3247,226.8
272.5473,697.6
272.6809,80.1
272.7028,54.9
272.7954,4105.9
272.8017,55.8
272.8094,84.5
273.0492,989.7
273.1107,124.8
273.1557,217.8
273.1932,165.3
273.23,18.9
273.2933,391.4
273.3638,110.3
273.5247,131.1
273.5313,723.5
273.5435,50.2
273.5536,68.1
273.6742,64.5
273.9143,103.5
273.9512,81.5
273.9633,731.2
273.976,95.9
274.0232,814.2
274.0412,21.8
274.052,776.1
274.0696,55.6
274.0931,2212.5
274.4038,71.6
274.6462,64.2
274.7047,861.1
274.7922,800.2
274.9192,191.7
274.9637,403.5
274.9778,89.8
274.9816,791.4
274.9936,53.4
275.0901,182.9
275.0967,60.5
275.1685,407.1
275.1747,120.2
275.1851,1165.3
275.2322,97.5
275.2383,48.5
275.2517,387.6
275.254,432.3
275.2689,730.5
275.3213,340.6
275.4379,508.4
275.8567,153.7
276.0042,44.3
276.0186,54.6
276.0283,124.7
276.0654,106.5
276.0942,111.8
276.184,168.8
276.2031,65.5
276.2196,61.6
276.2943,78.8
276.4464,480.5
276.7717,298.6
276.8207,622.4
276.9238,4618.2
277.0138,51.9
277.0447,63.4
277.164,368.3
277.2903,110.1
277.3611,76.6
277.6252,367.5
277.6956,711
277.7454,43.8
277.8063,55.4
277.8993,90.6
278.0005,23
278.0195,340.3
278.4546,197.9
278.5399,44.3
278.715,205.1
278.7871,64.4
278.9027,674.9
278.9209,544.3
278.927,419.4
278.969,106.7
278.9877,1917.4
279.0231,25.9
279.0484,118
279.0572,47807.4
279.0687,879.5
279.1989,23.3
279.2872,762
279.2956,103
279.4408,336.3
279.4522,171.1
279.555,82.1
279.6165,265.2
279.6226,51.7
279.6304,566.3
279.7144,71.1
279.8513,164.9
279.8656,1444.5
279.8767,167.7
279.8805,580.7
279.965,586.3
280.013,206.3
280.0163,140.3
280.0449,76.1
280.0607,1186.2
280.2869,299.1
280.4152,122.3
280.5394,576.5
280.6298,21.9
280.8018,125.5
280.8104,124
280.8274,1816.4
280.9388,66.8
281.0101,508.1
281.0334,86.5
281.0521,168.5
281.1144,179
281.1261,299.1
281.223,704.6
281.3896,17.2
281.4821,105.9
281.616,116.7
281.7785,947.4
281.7857,125.3
281.7904,640.4
281.9855,532.6
282.0152,117.3
282.0651,493.6
282.1136,57.6
282.1383,108.8
282.2222,124.7
282.2645,21.5
282.2834,254.9
282.3706,346.3
282.4227,727.4
282.6317,195.6
282.6626,93.9
282.8245,1939
282.902,881.4
282.913,69
282.9329,144.1
282.9825,543.9
282.9912,512.2
283.028,696.2
283.0498,386
283.0648,83.8
283.0799,116
283.4369,80.9
283.5337,55.6
283.6495,19.4
283.7016,80.4
283.7741,200.2
283.8135,45.6
283.8889,528.5
284.0498,163.5
284.0637,439.3
284.0781,715.8
284.2865,248
284.3375,144.5
284.3695,87
284.4291,59.1
284.4751,95
284.5107,61.4
285.0092,659.7
285.0231,171.5
285.0405,226.9
285.2107,220.3
285.2992,47
285.4236,575.1
285.462,289.4
285.4726,19.5
285.5882,347.6
285.5957,88.7
285.6746,78.2
285.9413,862.5
285.9816,566.5
286.0202,304.4
286.0357,44.1
286.0431,583.6
286.0964,63.7
286.2202,96
286.3453,176
286.3538,400.9
286.4412,57.9
286.4744,597.7
286.644,360.3
286.674,118.3
286.7723,1036.1
286.8781,67.1
286.8943,81.8
286.9392,237.3
286.9525,3891.4
286.9988,29.8
287.03,440.2
287.0559,57264.2
287.1533,61.6
287.1942,73.3
287.2501,52.3
287.2555,19.7
287.2921,87
287.3306,74.2
287.3422,21.1
287.4108,536.6
287.5681,312
287.6831,67.2
287.8643,129.5
287.8711,22.1
287.9754,60.3
287.9967,434.2
288.0592,2262.6
288.0853,120.3
288.1563,6143.1
288.1768,108.5
288.1989,80.1
288.2351,59.6
288.2648,67.8
288.4138,87.7
288.4856,203.4
288.497,78.3
288.5671,163.3
288.7617,591
288.7695,2495.8
288.8265,672.8
288.8389,109.3
288.8453,324.3
288.8543,1050.2
288.8655,2405
288.8735,6491.5
288.8822,9706.4
288.886,11237
288.891,8441.3
288.9053,16387.5
288.9096,16365.5
288.9152,19902.9
288.9209,16169.4
288.9258,19650.4
288.9287,17153.1
288.9378,19599.6
288.9516,5570.1
288.9546,5767.2
288.9757,577.6
288.9932,73.7
288.9998,70.9
289.0621,1805.3
289.0797,201.9
289.0869,94.9
289.1596,107.5
289.1889,143.2
289.2151,60.7
289.4976,427.1
289.5446,69.1
289.5712,20.1
289.6351,80.8
289.7268,398.8
289.8141,941.1
289.8464,104
289.9816,72.6
290.0851,103.8
290.1004,21.6
290.2928,743.4
290.3563,358.5
290.3947,110
290.4618,107
290.6449,108.9
290.6937,645.7
290.7564,709.4
290.7666,765.6
290.8116,843.4
290.8768,239.8
290.926,19
290.9839,175.7
291.0047,114.2
291.0153,53.8
291.0274,2513.6
291.0479,147.2
291.1238,64
291.1714,20.4
291.2144,164.9
291.2523,49
291.3274,735.2
291.5443,995.4
291.6017,128.7
291.714,133.9
291.9942,323.8
292.0811,29.7
292.1036,150.6
292.3114,115.4
292.3466,61.3
292.4397,407.3
292.8931,77.8
292.8978,779.9
292.9243,312.9
293.0052,63.7
293.0245,103.7
293.0384,85.7
293.0728,3079.5
293.0988,636806.8
293.1375,58.3
293.1537,315.5
293.2017,677.4
293.292,132.3
293.2954,137
293.3098,778.1
293.3547,405.4
293.4111,396.1
293.502,98.8
293.6054,66.8
293.6378,164
293.6901,154.9
293.6959,221.5
293.8072,153.6
293.9147,494.6
293.9939,769.8
294.096,973.3
294.1021,57074.7
294.3558,60.8
294.4814,771.8
294.6845,67.6
294.9582,324.5
294.9778,74.8
294.9912,197.5
295.0157,91.2
295.0244,448
295.031,1373.8
295.1029,3095.9
295.1952,8890.2
295.2021,77.3
295.3113,75.1
295.4224,94.4
295.4273,406.5
295.4356,79.4
295.5263,75.9
295.7803,57.3
296.0919,151.2
296.1911,937.6
296.2266,238
296.3122,371.6
296.3172,54.7
296.5945,687.1
296.6535,49.2
296.6605,716.1
296.6969,338.2
296.7876,94.8
296.8216,384.7
296.837,50.2
296.9881,86.6
297.1017,457.7
297.1265,81
297.2682,93.1
297.3078,413.5
297.36,81
297.3725,90.1
297.3799,391
297.432,138.6
297.7137,70.6
297.7777,47.4
298.0429,27222.1
298.0603,64
298.0755,617.7
298.1475,567.9
298.2615,22.6
298.5236,68.9
298.5653,114.9
298.7557,19.1
298.7603,69.3
298.9867,34.9
299.0464,1170.5
299.0527,250.6
299.14,62.6
299.1788,201.1
299.1904,122.4
299.2493,258.1
299.2676,186.4
299.3973,118.5
299.4132,73.7
299.5134,605.3
299.7638,95.3
299.8815,65.8
300.0098,113.5
300.0248,57.5
300.0359,171.3
300.0389,177
300.0499,54.9
300.076,644.2
300.2026,76.5
300.336,229.9
300.4569,53.6
300.4845,84.7
300.5569,756.3
300.595,205.7
300.7997,95.1
300.8148,121.7
300.8824,87.2
300.8844,116.2
300.9167,89.6
300.9205,477.5
301.0303,21560.6
301.0392,19044.8
301.142,569.5
301.1627,79.5
301.1849,103.6
301.2078,102.5
301.2125,967.8
301.5229,55.7
301.589,207.4
301.611,115.9
301.6419,86.5
301.7346,112.4
301.8426,247.1
301.9945,351.1
302.0203,1479.5
302.0338,1549.5
302.0646,3295.2
302.0737,45
302.0935,472.3
302.153,69.6
302.1656,183.5
302.1822,53.2
302.2168,624.1
302.2292,253.1
302.2585,53.2
302.2816,830.3
302.4237,95.4
302.5073,340
302.6738,110.6
302.6914,196
302.706,779.6
302.7169,125.1
302.7337,199.3
302.757,83.9
302.8302,2231.5
302.9725,68.9
302.991,578
303.0279,54.9
303.0372,48.1
303.0496,61.9
303.0552,392.6
303.068,256.5
303.0777,375.2
303.0913,398.2
303.1709,428
303.1937,579.4
303.2195,98
303.2301,1184.9
303.2517,76.2
303.2811,60.5
303.3206,143.3
303.4511,97.3
303.5495,64.3
303.5655,134
303.6966,634.7
303.7168,75.8
303.9288,564.1
303.9892,379.7
304.0548,18.7
304.0603,69.2
304.09,1159.5
304.1435,1208.5
304.2454,72.4
304.4485,84.8
304.5046,163.2
304.7278,120.7
304.7434,53.3
304.8269,1456.6
304.8714,533.1
304.9258,88.6
304.9959,827.3
305.0273,21.1
305.035,183.3
305.1357,153.1
305.1563,80.5
305.2304,541.8
305.4478,105.3
305.6136,245.8
305.765,214.5
305.7823,61.9
305.7983,430.5
305.8245,90.9
305.9825,21.1
305.9947,89
306.0961,91.5
306.4374,196.7
306.476,171.2
306.6592,395.8
306.6959,766.3
306.9506,21.4
306.9586,511.5
306.978,1746.1
307.0265,41
307.1676,244.1
307.1904,77.5
307.2434,782
307.2895,177.8
307.3748,113.4
307.3837,48
307.457,138.1
307.7044,259.2
307.8284,52.1
307.8786,719
307.9686,79.2
307.9939,551.7
308.0226,56.3
308.7275,120.1
308.781,674.4
308.8493,67.9
308.8795,2483.8
308.8862,741.4
308.9153,400.9
309.0055,321.4
309.0239,61.1
309.0381,5421.3
309.093,67.7
309.1272,151.4
309.2789,57.9
309.4055,165.4
309.411,106.7
309.5618,118.2
309.7377,471.2
309.7962,44.5
309.8352,139.7
309.8507,510.7
309.8581,115.5
309.8868,55.6
310.0514,584.2
310.124,56.4
310.3234,61.5
310.5779,402.8
310.6046,748.5
310.7321,78.3
310.7712,872.5
310.8021,54.9
310.8254,21.4
310.877,765.1
310.9586,22.7
310.9963,65
311.0035,69.3
311.044,70.3
311.1329,151
311.1589,78.2
311.1871,59.7
311.3057,119.5
311.3598,120.5
311.4295,100.4
311.4509,560.3
311.5486,100.1
311.5849,168
311.6863,258.9
311.8405,176.8
311.8792,377.6
311.9032,117.9
311.9164,49.7
311.932,353.3
312.0122,79.5
312.0201,27.9
312.2462,19.3
312.3115,55.6
312.3627,145.7
312.3747,50.5
312.4603,69.4
312.4751,99.6
312.6038,266.6
312.6422,92.2
312.7157,65.3
312.8841,389.6
312.8987,316.8
313.0646,278.1
313.2073,430.6
313.2476,99.9
313.2747,19501.7
313.4475,100.8
313.4648,64
313.688,106.4
313.7397,18
314.0153,601.7
314.0916,223.3
314.1093,364.8
314.1353,202.9
314.2126,78.9
314.278,3092.5
314.331,700
314.3855,59.9
314.6074,80.9
314.745,63
314.8285,52.7
314.8378,3952.4
314.8939,21.7
314.9997,4787.5
315.0189,74
315.0317,170.3
315.0434,173.9
315.056,8861.6
315.0635,5150.3
315.0673,29281.9
315.0698,34785.6
315.0808,8549065
315.1005,4764.1
315.1205,59
315.1619,4426.5
315.3243,5058
315.4871,319.6
315.5599,75.2
315.5895,223.9
315.6066,603.6
315.6182,116.6
315.7751,208.5
315.8064,320.4
315.8339,598.2
315.8542,85.3
316.0534,23
316.0688,2223.7
316.0782,46836.7
316.0841,880178.9
316.1831,65.8
316.2715,462.6
316.3233,145.2
316.3545,61
316.4351,56.9
316.7092,112
316.7748,390.5
316.793,195.9
316.9041,49.1
316.9877,969.3
317.0054,145.8
317.0569,9934.6
317.0657,3797
317.0847,95733.8
317.1365,815.5
317.1796,938.2
317.2697,79.5
317.3115,48
317.3745,83.4
317.3959,316
317.4713,150
317.6459,495.4
317.6975,157.5
317.7221,56.5
317.82,116.5
317.8421,54.2
318.0334,193.4
318.0606,319.8
318.0708,856
318.0882,10835.3
318.2947,73.3
318.4494,58.7
318.5906,384.9
318.7572,563.8
318.7927,358.8
318.8047,1135.9
318.8366,18.6
318.8973,765.5
318.908,333.2
318.9271,18.2
318.9998,395.4
319.0949,62.3
319.1953,22929.5
319.2659,196.4
319.2737,63.3
319.3843,66.4
319.4254,207.3
319.6322,56.4
319.6367,323.4
319.7627,67.4
319.817,183.4
319.9031,148.8
320.0026,22.7
320.0076,64.2
320.0606,19.5
320.0752,75.4
320.099,771.2
320.1836,59.6
320.1987,3532.3
320.2593,3338.3
320.3847,709.6
320.7679,58.9
320.8014,510.5
320.8423,140.1
320.8523,387.5
320.9714,440.6
321.211,14846.7
321.2631,48.9
321.2799,138.5
321.4389,455.5
321.4686,71.1
321.6724,91.1
321.7699,177.3
321.7802,45.5
321.8639,65.9
322.0096,245
322.0459,358
322.6459,114.8
322.6768,52.7
322.7569,125.6
322.7761,571.5
322.8813,272.9
322.9152,59.8
322.9322,1448.7
323.0133,25.2
323.0211,2730.3
323.2278,293
323.3047,97.8
323.5004,60.2
323.5247,257.7
323.6487,62.5
323.8435,381.8
323.8676,343
323.9297,330.9
324.0025,3929.5
324.0416,52.1
324.0563,112.7
324.1041,136.8
324.2129,915.9
324.278,57.5
324.6102,4931.6
324.6172,2695
324.6237,3739
324.6304,669
324.8536,1636.3
325.0071,266.6
325.0139,488.6
325.0304,55.5
325.067,118.3
325.2126,1409.3
325.3141,130
325.3257,82.3
325.4936,50.3
325.6199,674.5
325.67,358.6
325.6806,59.1
325.7217,65
325.7619,114.5
325.8828,92.3
325.9974,548.6
326.0053,76
326.1356,46.7
326.146,53.9
326.1843,242.4
326.2778,79.4
326.3255,566.9
326.423,112.7
326.4776,144.9
326.5044,44.5
326.5928,349.4
326.6106,97.9
326.8508,756.8
326.9239,356.9
326.9342,66.6
327.1309,96.3
327.2177,150.5
327.2282,4406
327.4393,56.1
327.5147,525.9
327.5324,270.6
327.6394,153.2
327.8805,171
327.8922,118.2
327.9283,89.9
327.936,64.3
328.0351,71.1
328.0922,118.7
328.3248,240.5
328.4446,62
328.4565,348.8
328.4639,305.1
328.5212,143.8
328.687,179.8
329.0675,151.3
329.0966,1806.1
329.1342,218.7
329.2863,50.4
329.2955,290.9
329.3134,90
329.4262,19.1
329.448,565.9
329.5438,796.3
329.7629,105.1
329.9518,97.5
330.0597,240.6
330.069,58.5
330.0838,72.7
330.0934,83.4
330.1546,409.2
330.2319,70.6
330.3903,54.9
330.4763,63.1
330.6874,98.4
330.7757,54.7
330.8774,466.1
330.9614,48.6
331.0313,505.9
331.046,192744.5
331.0548,1275839
331.1414,214
331.1887,864.5
331.3281,235
331.3873,104.6
331.459,51.9
331.4964,280
331.9843,488.1
332.0159,204.9
332.0489,13196
332.0582,110709.7
332.53,18.1
332.6755,101.8
332.7719,258.3
332.7873,218.7
332.8399,667.6
332.8841,20.6
332.9405,143.2
333.0187,104.9
333.0256,187.8
333.0411,238.1
333.053,73896.3
333.0581,12117.4
333.2421,712.5
333.2548,65.6
333.2816,343.9
333.3551,900.3
333.3825,793.2
333.6295,460.7
333.8118,42.2
333.8856,194.6
334.0418,79.2
334.0563,6467.5
334.0619,408.2
334.0913,52.6
334.1144,159.7
334.2418,240.7
334.372,78.3
334.516,434.5
334.5478,20.9
334.5597,524.7
334.7704,586.5
334.8062,824.7
334.8699,498.2
334.9595,286.9
335.0159,137.9
335.0389,1459.6
335.1338,93.2
335.2079,668.7
335.2573,159
335.2835,129.9
335.3276,374.3
335.3996,118.9
335.4219,179.2
335.4642,396.5
335.6523,67
335.6851,99.4
335.7002,63.7
335.7755,124
335.802,65.7
336.0885,172.9
336.1146,487.7
336.2389,70.3
336.3762,99.3
336.4133,115.3
336.6032,60.2
336.793,84.5
336.8076,184.9
336.8785,425.2
336.8927,79.1
336.9097,144.8
336.9742,83.3
337.0371,6554.3
337.0504,28708
337.0628,836930.7
337.2749,5027.7
337.4031,378.6
337.4609,77.4
337.5593,52.7
337.6189,575.5
337.7223,93.3
337.8073,486.8
337.8137,695.9
337.8296,375.2
338.0504,1036.3
338.0662,74548.8
338.1275,222.6
338.1594,203.2
338.221,300.6
338.3042,84.3
338.3829,292.2
338.7862,440.2
338.7991,139.2
338.8478,121
338.8687,184.8
339.039,8930.5
339.048,1558.1
339.0667,8031.5
339.1633,121.9
339.2341,156.6
339.2906,2016.7
339.4538,169.5
339.7316,285.8
339.8388,123
339.8547,95.2
339.895,138
339.9765,132.4
340.0213,64.3
340.0424,90.9
340.0788,220.7
340.195,260.6
340.3161,49.5
340.3461,674.1
340.6567,185.5
340.7831,915
340.83,308.9
340.987,1043.3
341.3058,4514.6
341.4079,55.3
341.4155,104.8
341.5428,295.2
341.6314,175.3
341.6368,77.9
341.8279,46.8
341.9097,88.1
341.9522,541
342.016,1945.5
342.0687,24.1
342.1293,97.3
342.1959,707.1
342.2256,411.3
342.6001,92.3
342.6158,92.2
342.7782,239.2
342.9358,67.1
343.0248,61.2
343.081,405.8
343.1955,13833.1
343.466,63.6
343.722,670.5
343.8019,47.6
343.8834,324.8
343.9011,77.5
343.9222,104.2
344.2542,242.5
344.4528,194.2
344.5133,134.8
344.5398,46.3
344.7941,512.6
344.8365,341
344.9142,101.2
345.0802,19.8
345.188,94.7
345.2113,222.9
345.3079,966.4
345.4209,57.6
345.6131,498.9
345.6428,138.4
345.7842,69.3
345.8083,211.5
345.9845,5437.5
345.9941,113.6
346.0103,342.2
346.0215,207.5
346.1316,635.2
346.235,45.8
346.3474,168.4
346.38,58.1
346.4625,19.1
346.6029,248.7
346.7734,67.6
346.8598,71.1
346.8738,85.5
346.9318,53.8
346.991,17.7
347.0182,1534
347.323,921.8
347.4432,721.6
347.4952,728.8
347.5406,122.3
347.5477,111.1
347.7805,712
347.9971,125.2
348.364,103.1
348.6989,139.6
348.8115,86.8
348.9183,793.8
349.0185,710.4
349.0475,59.7
349.4633,109.4
349.4965,22.6
349.5905,1065.4
349.6293,601.7
349.6521,144.7
349.9433,416.6
350.0194,3503.3
350.1035,19.8
350.1906,127.5
350.3153,681
350.4995,73.5
350.5184,477.8
350.5477,53.5
350.6354,330.7
350.7037,54.3
350.8132,358.6
351.0137,61.3
351.1151,844.1
351.3097,16.3
351.342,92.2
351.3708,253.1
351.6105,484.4
351.6714,48.3
351.693,97.7
351.778,77
352.1688,68.6
352.473,88.1
352.5692,150.9
352.8385,159.1
352.9802,154.2
353.0279,190811.1
353.0368,285820
353.1689,50.8
353.269,142.7
353.3858,506.1
353.4131,97.1
353.4362,188.6
353.5145,18.1
353.7569,68.8
354.031,15436.1
354.0402,25995.4
354.3192,143.7
354.4088,46.2
354.5918,46.8
354.6216,895
354.7253,146.8
354.7436,168.4
354.8305,45
354.8489,595.5
354.8819,736.4
354.9683,92.3
354.9909,211.4
355.0126,3785.4
355.0214,200.4
355.0351,15799.1
355.0714,332.3
355.1389,226.4
355.3276,99.2
355.423,84.1
355.4949,423.2
355.6467,99.2
355.7032,20.6
355.829,81.9
355.9713,59.8
356.0157,90.3
356.0458,162
356.0525,89.1
356.0722,347.6
356.2364,117.5
356.386,67.8
356.5015,81.4
356.7363,113.7
356.8754,258
356.947,66.3
356.9555,719.9
356.9707,48.3
357.0094,962.1
357.021,211.5
357.0865,68.8
357.0997,260.7
357.1288,154.3
357.2185,148
357.2972,85.4
357.366,219.5
357.6365,763.8
357.6501,135.1
357.6589,20.4
357.6671,83.4
357.7825,95.8
357.8296,97.1
357.8401,472.2
357.9831,99.3
358.0105,23.5
358.0243,100.2
358.3055,185.1
358.6337,84.5
358.9111,95.8
358.9329,372.6
358.9531,778.8
358.9779,76.4
359.0084,543.3
359.0323,20920.8
359.0448,526461
359.1627,667.3
359.1818,470.2
359.2758,298.5
359.3603,51.2
359.3712,108.1
359.3888,24.8
359.4139,103.7
359.4484,1202.9
359.4625,702.6
359.4714,142.4
359.4936,271.4
359.5087,963.2
359.5204,19.8
359.5291,833.6
359.5538,484.7
359.5651,396.8
359.5963,675.1
359.8296,144.5
359.8608,201
359.8686,347.3
359.9079,113.3
359.9752,49
360.0125,33.9
360.0327,800.7
360.0482,51145.7
360.1547,981.6
360.3243,112.5
360.3554,80.3
360.3965,104.4
360.5639,344.2
360.6025,307.1
360.7811,173.2
360.8235,636
360.9479,810.6
360.9778,133.8
360.9971,62.1
361.021,10847.3
361.0488,1619.8
361.2748,1081.4
361.3277,26.7
361.3377,535.4
361.4191,61.9
361.9588,438.3
362.024,240.1
362.0689,78.8
362.1641,584.5
362.2403,104.6
362.2945,100.5
362.3885,48.5
362.5018,93.8
362.9937,58.4
363.0191,488.3
363.0926,97.4
363.2992,127.8
363.6066,131
363.6668,60.8
363.6848,187.5
363.8426,102.5
363.9393,68.9
363.998,363.7
364.0126,364.9
364.0759,170.5
364.4669,591.2
364.6048,48.1
364.8027,370.6
364.8612,74.1
365.1324,44.9
365.1593,20.1
365.1819,168.1
365.2565,94.6
365.3546,420.3
365.4888,573.4
365.6511,408.6
365.7225,367.4
365.8707,282.5
365.922,19.1
366.018,57.1
366.0508,398.3
366.0606,28
366.0724,2346.4
366.14,107.5
366.1932,343.9
366.3283,67.5
366.6402,115.9
366.7426,94.1
366.8604,153.8
366.8938,563.2
367.1219,2187.7
367.1957,1683.3
367.2933,64.1
367.3695,617.7
367.7053,703.8
367.8886,150.4
367.9926,1125.3
368.005,51.6
368.1109,94
368.1549,90.9
368.2909,297.6
368.5612,833.7
368.5699,154.8
368.6677,76.7
368.8103,113.2
368.892,1017.9
368.9926,2071.7
369.0019,27253
369.0107,12855.7
369.0201,68.9
369.0678,99.6
369.1069,48.6
369.262,111.9
369.3543,223
369.5182,515
369.9838,506.5
370.0056,847.8
370.0682,845.4
370.1349,138
370.1849,99.1
370.3898,95.7
370.6595,843.5
370.6853,493.1
370.7059,218.3
370.8259,297.9
370.9739,268.8
371.0006,660.2
371.0875,103.3
371.223,460.7
371.2524,106.8
371.365,163.9
371.6229,715.5
371.7314,68.5
371.7693,340.3
371.7911,183.7
372.1776,155
372.228,247.7
372.2589,579.3
372.3578,113
372.5736,388.2
372.6019,66
372.6485,393.9
372.8168,180.3
372.9982,77.7
373.0619,347.9
373.0858,106
373.1662,505.3
373.276,46.4
373.6946,97.5
373.7053,316.4
373.7672,110.2
374.4981,673.6
374.5472,675.8
374.8628,233.7
374.9927,120.8
375.0099,164376.9
375.0188,178170.7
375.1397,159.2
375.4282,564.2
375.4558,120.1
375.6299,72.3
375.7288,57.3
375.9525,249.2
376.013,15087.6
376.0222,15427.4
376.052,63.6
376.1695,264.1
376.2146,58.2
376.2827,95.4
376.3829,492.6
376.4547,257.9
376.4684,173.8
376.4782,439.7
376.6587,653.9
376.7787,862.4
376.9947,4216.3
377.0039,567.2
377.0172,9868.6
377.0292,91.6
377.1744,405.9
377.3771,64.3
377.5324,739.3
377.61,77.9
378.02,214.2
378.0778,138.2
378.3353,270
378.3729,90.1
378.484,69.6
378.5217,145.2
378.6444,511.5
378.6674,575.1
378.6779,45.8
378.7604,535.4
378.7804,167.5
378.9909,261.3
379.0037,61.1
379.3135,357.3
379.3742,124.5
379.3997,67.9
379.4652,91.7
379.534,104.5
379.6988,599.9
379.7334,20.3
379.7903,228.7
379.949,142.1
380.3435,17.5
380.4644,120.7
380.6135,65.4
380.7136,66
380.8227,101.6
380.9913,22.2
381.0144,20020.2
381.0269,270721.8
381.083,127.2
381.2914,428.6
381.6225,155.5
381.7903,458.5
381.8759,17.6
381.963,149.4
381.9719,86.5
381.9917,71
382.0302,24194.3
382.0904,386.3
382.1864,382
382.2976,498
382.6292,441.7
382.7675,2035.2
382.8841,46.2
382.8951,106.6
383.0112,672.1
383.1171,116865.6
383.1776,116
383.2181,103.2
383.3699,225
383.4232,136
383.9661,464.5
383.9724,680.4
384.0456,19.8
384.0678,845.1
384.1205,12170.9
384.2579,450
384.4166,470.5
384.5321,48.2
384.9003,116.3
385.0962,659.9
385.1213,648.1
385.1734,157.8
385.2408,148.1
385.2748,154.3
385.4261,103.1
385.5023,391.1
385.8985,79.1
385.9802,719
386.0174,160.9
386.1778,117.5
386.2638,114.1
386.6538,80.6
386.6615,138.6
386.789,20.8
386.9654,22
387.0038,1386.9
387.3097,196.2
387.3589,788
387.3947,21.8
387.4947,942.6
387.5441,821
387.7847,58.7
387.7936,874.2
387.9111,307.8
387.9791,104.5
387.996,204.3
388.0712,709.3
388.1021,64
388.4021,883.9
388.7832,90.1
388.894,413.1
388.9237,70.8
388.9412,52.4
388.969,49.6
388.9957,309.4
389.0506,739
389.1204,202.2
389.1375,105.4
389.3523,40.7
389.4005,49.5
389.4913,49.2
389.5658,25.6
389.7182,128.4
389.8411,23.5
389.9745,8132.9
390.199,111.4
390.3019,139.5
390.3303,90.5
390.3548,226
390.6994,119.2
390.7998,2226.1
390.8256,145.3
390.8796,60.8
390.8861,659.5
390.8938,466.6
390.9027,120.9
390.9749,6641
390.9838,35415
390.9928,20186.3
391.0254,764.9
391.0723,20
391.1639,495.2
391.2464,341.1
391.2809,59.9
391.483,612.8
391.7013,169.1
391.7993,544.7
391.8271,597.6
391.9572,642.7
391.9737,744
391.9787,691.9
391.9872,384.9
391.9955,406
392.1729,132.1
392.2549,117.9
392.4355,103.3
392.5095,576
392.5368,214.9
392.625,121.6
392.6527,60.2
392.6893,63.5
392.797,615.9
392.969,495.8
392.9821,434.8
392.9911,1031.6
393.1608,133.9
393.3863,538.1
393.5303,212.9
393.9034,209.5
393.9288,806.4
394.1129,486
394.1733,98.2
394.2872,103.4
394.3239,76.3
394.3538,681.3
394.564,47.4
394.5799,19.4
394.6823,492.1
394.8631,18.5
395.0513,727.3
395.1459,72.8
395.3211,118.7
395.3355,65
395.3718,512.4
395.4381,116.5
395.7943,262.2
395.8178,667.6
395.911,55.4
395.9388,319.4
396.0134,76.8
396.507,199
396.5575,853.2
396.5677,137.8
396.6302,240.8
396.7452,1070.4
396.8931,463.8
396.9648,215.8
396.992,141279.2
397.0008,105601.5
397.0191,62.2
397.0457,107.8
397.1946,687.2
397.3922,94.1
397.684,75
397.6937,95.8
397.7621,53.3
397.7694,166.4
397.7814,898.7
397.8191,59.2
397.8609,223.4
397.8979,149.5
397.9254,315.8
397.9951,9719.7
398.004,7343.9
398.1195,14442.5
398.1923,591.9
398.2059,125
398.2431,3718.2
398.3574,79.3
398.4191,80.7
398.5947,797.4
398.7144,191
398.7418,2065.4
398.7686,113.7
398.983,898.6
398.9993,4035.2
399.1228,1434.3
399.432,21.1
399.8779,56.3
399.9045,137.7
399.9364,21.3
399.9778,209.8
400.2878,109.7
400.2953,92.2
400.3161,78.1
400.3819,479.9
400.4492,180.1
400.5007,102.2
400.7389,1460.2
400.7566,106.6
400.9732,47.8
400.9811,715.9
400.989,406.1
401.3482,512.3
401.3773,859.8
401.4268,83.7
401.6454,144.9
401.8556,108.6
401.9476,117.6
401.9907,480.2
402.0547,62.2
402.0691,519.8
402.1949,818.2
402.7806,423.1
402.8248,1147.8
402.8391,49.8
402.9422,548.6
402.9912,749.4
403.0088,193911.5
403.5927,69.1
403.6966,63.7
403.8558,71
404.0121,13473.9
404.0985,57.2
404.234,875.8
404.3267,485.5
404.5537,19.6
404.9154,83.2
404.9573,531.2
405.0052,136
405.0568,78.4
405.0772,644.9
405.2709,266.3
405.4086,139.9
405.443,74.1
405.5066,244.6
405.9485,4444.5
406.0762,161.4
406.1476,67.9
406.167,329.2
406.2027,549.6
406.254,53
406.3302,1420.5
406.3596,45.8
406.535,150.4
406.7167,55.9
406.7734,506.6
406.8337,93.5
406.8752,61.8
406.8982,349.9
406.958,325.5
407.2799,125.4
407.3331,563
407.5125,182.3
407.6724,843.8
407.6862,71.5
407.731,613
407.9131,642.4
407.9472,65.4
408.1199,197.3
408.1515,190.4
408.4271,80.5
408.502,175.5
408.6417,494.1
408.6815,462.5
408.7712,1931.7
408.8843,76.8
408.8955,258.4
409.0562,22.1
409.1126,68.5
409.5527,75.3
409.6203,680.2
409.7461,399
409.9951,122.7
410.0804,116.9
410.1224,311.9
410.1919,759.6
410.252,57.8
410.528,801.8
410.578,108.6
410.7673,959
410.7961,19.2
410.8301,808.8
410.8624,138.1
410.97,25.3
410.9776,177.4
411.2002,79.2
411.501,78.6
411.5723,237.3
411.6127,233.8
411.6618,156.4
411.7076,162
411.8747,326.9
411.884,460.9
412.0644,144
412.1016,525.2
412.2139,446.5
412.3107,48.3
412.3222,4511.2
412.4003,114.1
412.4714,57.6
412.7788,283.1
412.9658,38148
412.9747,19663.8
413.2676,7719.1
413.2812,188.4
413.326,397.8
413.4647,907.2
413.9914,140.8
414.0236,231.7
414.2349,459.2
414.2458,499
414.2705,564.2
414.3214,336.4
414.3781,141.8
414.4511,140.4
414.5492,706
414.7161,367.7
414.9319,854.1
414.9501,100.9
414.9606,967.3
414.9735,575.1
414.9982,3621.5
415.1464,12894
415.2275,82.2
415.2397,199
415.3407,53
415.4166,170.1
415.4478,48.5
415.7046,93.3
416.021,88.8
416.0295,542.4
416.1361,6809
416.149,750.7
416.1648,178.6
416.2151,16053.9
416.5414,154.8
416.646,140.4
416.683,744.2
416.8031,671.2
416.8951,17.2
416.9823,107.2
417.0035,1670.5
417.2053,17.7
417.2183,1074
417.3653,63.8
417.6257,104
417.7753,109
417.8078,195.5
417.9106,80.8
418.0656,867.9
418.0774,282.9
418.2013,108.2
418.2187,62.2
418.3092,100.9
418.489,60.5
418.8392,18.4
418.9828,84662.8
419.0115,93.6
419.1239,783.2
419.1428,584
419.4948,129.8
419.6508,125.3
419.9117,742.4
419.9862,4981.5
420.0727,103.8
420.2587,654.8
420.3249,59.9
420.5322,53.2
420.6983,288.5
420.8395,482.9
420.9573,580.7
420.9809,2538.8
421.0583,576.7
421.1106,624.2
421.2672,61.5
421.8191,101.5
421.8446,268
421.9223,279.6
421.931,190.7
422.1335,188.9
422.304,20.4
422.3639,118.5
422.4599,761.8
422.496,63.3
422.6002,106.4
423.3441,100.4
423.3939,307.2
423.5145,84.4
423.6888,199.9
423.944,51.3
424.144,95.7
424.223,55.2
424.3048,401.5
424.5363,185.5
424.6067,108.6
424.6765,858
424.7435,469.6
424.9782,799.4
424.9853,98.8
425.2121,884.6
425.3405,70.1
425.5151,369.3
425.6793,195.9
425.6832,179.7
425.6968,54.5
425.8711,204
425.9657,161.2
426.0084,75.2
426.0485,727.3
426.3157,78.5
426.3425,101.2
426.5543,60.5
426.5895,143.8
426.7333,201.6
426.8187,53.8
426.8508,159.1
427.0021,57.3
427.3321,47
427.5189,301.7
428.0916,349.5
428.1582,63.8
428.2366,716.9
428.4277,90.5
428.4713,17.3
428.5856,271.7
428.8372,172.4
428.8706,218.4
428.9395,2387.9
428.9478,167.9
429.022,349.4
429.0317,632
429.0902,81.1
429.1489,131.5
429.2059,97.7
429.2784,101.9
429.4016,222.9
429.7251,57.8
429.7927,43.8
429.9741,55.3
430.0162,155
430.0284,83.2
430.0674,411.7
430.2407,361.4
431.0054,102.8
431.0234,79.7
431.0321,65.9
431.0759,93.4
431.1863,193.9
431.3209,119.3
431.4104,51.9
431.4225,242.6
431.4684,86
431.5742,19.3
431.8053,67.3
431.8971,52.1
432.2333,81.3
432.243,116.2
432.399,157.3
432.4211,19.3
432.4758,89.3
432.541,211.1
432.5906,21.5
432.8389,581.3
432.971,162
433.0757,439.2
433.1539,720.7
433.1924,85.2
433.398,94.1
433.4941,84.3
433.532,302.7
433.673,694.8
433.933,104.6
434.6231,104
434.691,64.8
434.9299,954.4
434.9569,21186.2
435.0406,176.5
435.349,144.7
435.4185,160.9
435.654,147
435.7075,153.9
435.9606,158
435.9875,257.6
436.3403,612.9
436.698,128.7
436.7874,62.7
436.9555,957.1
437.129,2291.1
437.1766,677.9
437.205,941.6
437.2162,798.7
437.2681,54
437.4863,145.8
437.6069,125
437.7484,42.2
437.8883,18.8
437.9749,149.9
438.0355,60.4
438.1874,91.1
438.4066,94.9
438.9732,1532.6
438.9856,15539.1
439.2242,294.4
439.4919,18.8
439.6015,99.3
439.6988,876.3
439.7162,192
439.8937,71.7
439.9928,742.9
440.0467,80.4
440.2437,304.8
440.3059,49.4
440.3399,681.5
440.4029,145.2
440.8276,567.9
440.8494,491.3
440.9694,424.8
440.982,2197
441.0663,88.5
441.0794,59.4
441.1022,551.8
441.225,245.4
441.2984,399.8
441.4115,18.2
441.5477,47.8
441.5589,92.2
442.2009,59.7
442.3502,638.3
442.7006,98.7
442.7525,19.1
442.7944,102.1
442.8878,185.8
443.1607,67.6
443.1892,51.5
443.2542,2033.7
443.2754,46.4
443.6352,123.9
443.7151,93.1
443.7442,73.5
443.8593,18.9
444.0486,786.4
444.1343,109.4
444.1471,111
444.3803,19.8
444.4051,116.2
444.4371,107.4
444.6057,92
445.1702,48.2
445.2347,1303.5
445.2611,73.2
445.4291,788.1
445.4511,244.5
445.4987,72.7
445.52,400.4
445.8864,228.6
446.038,63.2
446.2329,110.6
446.5192,85.7
446.5642,139.5
446.7464,551.1
446.8444,64.7
446.8803,562.5
446.9896,65.5
447.0994,225.4
447.2513,730.6
447.416,60
447.4335,170.1
447.8325,172.6
447.868,99.6
447.9064,68.9
447.9332,281.1
447.981,100
448.0472,47.1
448.2942,931.1
448.4129,94.7
448.504,114
448.6675,493.5
448.7731,113.4
448.9334,1171.6
448.9497,84.2
449.0008,72.2
449.1059,688.5
449.1551,860.7
449.3673,77.6
449.4362,103.4
449.481,21.9
449.74,654.2
449.9423,125.9
450.1586,139.3
450.256,988.7
450.2649,196.9
450.3229,163.7
450.4433,162.7
450.5733,752.2
450.7018,99.3
451.0058,1003.2
451.1514,73.9
451.2933,475.8
451.6341,83.3
451.9964,363.4
452.0179,52.8
452.4001,82.4
452.464,67.5
452.5135,252.5
452.5623,67
452.665,134.2
452.6725,84.5
452.702,79.4
452.7921,21
452.8538,251
453.0176,425.1
453.0261,89
453.0755,243.6
453.1872,213.8
453.6487,45.4
453.7279,183.8
453.791,49.3
453.824,87.3
453.9821,265.9
454.3376,56.8
454.5801,764
454.7569,492
454.9221,392.7
454.9508,32177.2
454.9593,7805.5
455.0752,58.2
455.3988,68.6
455.5222,100.1
455.6955,766.3
455.9542,570
456.027,100.6
456.7003,1115.4
456.7839,673.1
456.9478,5058.3
456.9567,1627.7
457.2338,6104.9
457.2971,83.7
457.5292,193.2
457.5787,83.9
457.8304,67
458.0868,576.6
458.2459,140.7
458.5121,483.8
458.6129,71
458.9378,388.8
458.9623,1034.4
459.2495,269640.9
459.3453,481.9
459.3847,95.8
459.7239,115.8
459.8656,106.4
459.9064,221.8
459.9211,290.8
459.9986,783.6
460.2528,55734.1
460.4746,345
460.5781,115.7
460.6002,468.5
460.6542,556.4
460.9675,63747
461.2552,2561.1
461.8547,679.4
461.9712,3775.2
462.0832,294.7
462.3904,110.1
462.4428,51.3
462.7804,68.2
462.8046,89.8
462.882,117.4
462.9647,18974.2
462.9757,424.9
463.3693,143.5
463.686,822.7
463.8373,24.3
463.905,100.9
463.9204,92.6
463.9678,470.9
464.003,772.2
464.0611,114.5
464.1538,85.7
464.5012,482.7
464.7676,111.8
464.8307,833.5
464.9797,8794.6
465.1184,27.3
465.2,486.4
465.3253,486.3
465.3323,184.1
465.8578,403.2
465.9551,1078.6
466.0196,183.6
466.3533,162.9
466.5364,97.4
466.8507,50.1
467.0182,100.4
467.1593,113.5
467.2494,47.4
467.2596,143.4
467.325,726.8
467.3436,106.7
467.6897,171.6
468.1179,156.2
468.194,277.2
468.242,73.6
468.2523,19
468.4564,18.5
468.49,52.7
468.5368,45.3
468.8638,97.8
468.9648,21.8
469.0031,566.2
470.1444,155.8
470.2937,356.8
470.3049,170.8
470.3178,20.5
470.6332,130.3
470.7359,96.7
470.9246,15647
470.9963,3368.9
471.4418,171.8
471.4987,575.1
471.5111,104.8
471.8789,902.7
471.9273,389.6
471.9376,60.1
472.1892,150.4
472.3543,878.7
472.4316,559.9
472.4768,129.4
472.5657,55.3
472.5883,113.4
472.6472,155.6
472.7386,136.8
472.8153,66.7
472.9214,3214.1
472.9701,871.6
472.9799,1937.5
472.9969,234.6
473.0105,115
473.1206,106.7
473.1503,352.5
473.2649,1677
473.2958,168.9
474.0234,297.9
474.0722,70.6
474.1374,292.2
474.1464,125.6
474.3798,147.3
474.4004,250
474.6651,19.1
474.7803,421.3
474.8982,232.5
475.0078,56.1
475.1193,93
475.2234,20445.5
475.4829,21.2
475.7653,810.3
475.9224,257.2
475.9679,109.3
475.9861,417.2
475.9978,161.2
476.2272,1514.5
476.4944,106.2
476.9415,47030.8
477.0039,21.1
477.1277,175.2
477.1543,143.7
477.523,60
477.6772,76.7
477.9443,1902
478.0139,456.2
478.0334,19.1
478.1239,107.3
478.29,558.8
478.3304,31332.2
478.3685,251.1
478.3893,909
478.8024,581.9
478.9027,73.6
478.9387,13906.2
479.0041,599.4
479.1805,234.9
479.2563,409.1
479.312,388.5
479.3329,2812.2
479.3819,385.7
479.98,58.3
480.2834,74.8
480.3196,323.4
480.3451,2338
480.8371,19.4
480.866,121.3
480.9025,67.2
480.9534,3451
481.0924,178.4
481.1114,20.7
481.1972,18.9
481.4798,142.5
481.6341,19.6
481.6481,45.4
481.9059,218.3
482.0386,45.8
482.0952,18.7
482.1687,604.4
482.2494,87.7
482.258,75.3
482.3643,192.9
482.5216,856
482.6438,94.6
482.672,133.8
483.0103,57.8
483.2105,119.3
483.2494,92981.6
483.3422,409.6
483.3771,17.6
483.5693,414.4
483.6783,101.4
483.8005,109
483.8119,413.9
483.9863,126.4
484.0138,719.7
484.2042,92.7
484.219,155.9
484.2528,19143.7
484.682,791.8
484.8166,63.9
485.0141,431.2
485.0689,50.9
485.2651,56804.4
485.293,49.9
485.3155,167
485.3239,49.8
485.4225,102.2
485.4453,69.5
485.4639,165.6
485.529,102.4
485.9919,511.1
486.2684,12004.3
486.7515,85.4
486.8986,1403.2
487.151,24.9
487.2469,44.3
487.2807,64064.9
487.3609,355
487.3913,375.2
487.4095,575.3
487.8142,51.9
488.1257,270
488.1433,19.6
488.2634,95.1
488.2841,13762.4
488.6777,395.5
488.6859,67.4
488.7481,20.9
488.7883,359.2
488.8952,1265.1
489.0862,30.8
489.1392,349.5
489.22,406.2
489.2459,248.6
489.2764,195
489.2866,673.9
489.3071,296.2
489.3608,645.5
489.421,97.3
489.6507,398.3
490.2471,110.9
490.2909,2266.7
490.4031,228.8
490.4246,175.4
490.8908,591.1
490.9499,51.9
491.0842,32.2
491.1931,19.6
491.3307,223.9
491.3668,51.4
491.4913,811.7
491.7473,385.6
491.9728,889.5
492.0118,87
492.1154,190.2
492.8284,47.3
492.8619,97.7
492.9154,8922.1
492.9485,83.9
493.1802,46.9
493.2911,97.9
493.3658,375.4
493.7591,157.8
493.9567,19.8
494.3253,2992.7
494.3556,190.2
494.5008,66.1
494.6271,101
494.9129,2790.3
494.975,814.1
494.9782,791.2
495.1497,22.8
495.1835,83
495.6129,503.2
495.7887,334.2
496.0406,68.5
496.1338,856.2
496.325,137.3
496.341,491156.6
496.3577,43.5
496.41,95.7
496.6497,57.5
496.8537,76.8
496.9316,488.3
496.9428,871.8
497.0804,136.2
497.2189,98.1
497.3443,114928.1
497.3952,19.6
497.4153,113.7
497.4932,143
497.6237,313.6
497.6877,142.6
497.7473,57.1
498.3474,9176.9
498.7234,121.6
498.9401,734.9
498.964,725.5
499.0169,102
499.1377,54
499.2231,5165.2
499.5056,106.1
499.6618,360.7
499.7116,62.3
499.816,185.7
499.848,499.4
500.0947,18.3
500.1787,400.7
500.2258,1223.8
500.3166,567.4
500.35,299.8
500.6102,87.2
500.6745,76.1
500.7274,51.9
500.7716,633.1
500.8182,60.4
500.8441,111.8
500.9046,60.6
500.9856,1052
501.0914,684.4
501.2384,3444.6
501.3073,71.1
501.7006,689.1
502.251,84.8
502.3295,9264.7
502.3676,693.8
502.4984,56.9
502.5497,144.8
502.5795,84.2
502.6444,260.4
502.6834,539.7
502.7105,101.2
502.8818,768.3
502.9475,56.3
503.11,25.1
503.1321,169
503.19,89.5
503.2177,556.4
503.2548,5325.2
503.2909,109
503.3332,1873.7
503.3668,46.8
503.4258,605
503.674,18.9
504.0543,877.7
504.1402,351.8
504.2304,108.7
504.3074,2233.5
504.3449,4248.7
504.823,1155.9
505.0289,504.6
505.2062,862.2
505.2798,816.2
505.3236,86.8
505.5084,196.8
505.8162,79.4
505.8369,612
506.3617,3740
506.5206,178.5
506.6285,139.7
506.7171,823.8
506.7852,109.7
506.8406,561.8
506.8921,1197.1
507.0837,97
507.2495,31355.1
507.3658,58.2
507.3791,51.5
507.8082,250.4
508.0526,94.4
508.1381,523.7
508.1431,533.3
508.253,6805.6
508.3772,796.3
508.6387,199.4
508.7135,498.2
508.8896,1072.1
508.9304,663.8
509.0057,2446.2
509.2653,6072.5
509.5027,93.9
509.674,222
509.7674,424.2
509.9167,393.2
510.0285,159.3
510.0866,78.2
510.3567,6090.3
510.3925,121.3
510.5924,84.9
510.7632,267
511.124,24.8
511.2787,118.7
511.3839,135.5
511.6723,108.9
511.9965,144.6
512.3546,364.9
512.4537,57.6
512.6756,110.9
512.8437,63.9
512.9093,15373.7
512.9899,54.3
513.2797,70.2
513.559,536.9
514.2687,656.7
514.3224,108.7
514.4751,171.8
514.6593,480.5
514.8061,153.3
514.9069,5038.6
515.0387,79.6
515.1599,19.2
515.2048,198.4
515.2158,56.5
515.2795,117.1
515.688,86.4
515.7828,152.7
515.808,115.8
515.8634,82.2
515.9941,151.7
516.0159,285.1
516.307,6445.7
516.4305,592
516.6552,459.7
516.7556,531
516.7854,117.2
516.9005,1187.2
516.9199,2140.1
516.9458,143.8
517.03,96.1
517.1775,102.4
517.2444,136.6
517.305,79.5
517.323,252
517.6707,164.3
517.7546,55.8
517.7856,232.6
518.0351,1006.7
518.0738,54.3
518.2316,50.3
518.3231,656498.3
518.4361,74.7
518.6058,213.8
518.698,208.1
518.926,25637.4
519.0265,68.7
519.1152,191.1
519.3264,163152.9
519.3517,55.6
519.376,91.3
519.5301,41.9
519.6523,312.5
519.7731,150.9
519.9306,595.2
519.9916,56
520.0811,132.6
520.1853,114.3
520.2262,20.6
520.2476,44.8
520.3411,152886.8
520.5327,121.7
520.6298,87.7
520.7051,87.9
520.9234,12208.9
521.0305,121.8
521.1037,595.4
521.3114,58.7
521.3444,41476.4
521.3666,63
521.6976,100.8
521.7363,497.9
521.787,63.7
521.8667,178.8
521.9145,18.4
521.9295,90.9
521.9527,965.5
522.3216,19.1
522.3567,108044
522.4706,479.4
522.921,1342
522.9382,6086.7
522.9669,137
523.3599,26834.9
523.8086,534.5
523.8999,62.9
523.9691,163.9
523.9818,88.4
523.9974,346.3
524.0512,229.1
524.0641,437.7
524.0736,196.2
524.0886,141
524.1165,918
524.3128,182.3
524.3723,162092.4
524.5033,92.8
524.5891,385.6
524.701,531.1
524.8639,754.3
524.9351,1165.3
525.1414,78.8
525.2107,155.7
525.3757,42213.6
525.7275,171.3
525.8883,44.6
526.0309,173.3
526.2611,57
526.3292,1829
526.3577,845.4
526.379,2714.1
526.4675,542.1
526.5072,296.7
526.7203,71.9
526.8616,79.5
526.9404,290.7
527.1006,277.8
527.1222,781.5
527.1535,74.3
527.3368,751.3
527.3757,120.6
527.7416,25.5
528.0461,79.2
528.3477,82.2
528.3986,104.6
528.4239,512.6
528.587,47.6
528.801,668
528.8832,8128.9
528.9552,1576.6
528.9936,124.6
529.2928,974.2
529.3499,283.6
529.3554,521
529.3615,543.1
529.4441,51.8
529.6645,280.5
529.7907,101.1
529.8304,804.6
529.9323,133.5
530.0498,852.8
530.1267,114.8
530.1298,105.9
530.3231,1202.7
530.3604,1289.1
530.5528,18.6
530.8807,5326.6
531.1182,121.5
531.2499,3246.4
531.6739,412
531.7263,106.5
531.7581,86.1
531.8102,87.9
531.9841,191.3
532.2134,79.2
532.3388,9626
532.4101,292.4
532.426,574.9
532.4351,18.1
532.7658,314.6
532.9306,163.1
532.9673,3457.3
533.0283,456.6
533.1269,294
533.2088,102.8
533.2565,290.8
533.342,2660.2
533.4288,129.7
533.6622,58.3
533.7035,109
533.7708,285.7
533.9166,58.4
533.9269,327.5
534.0145,66.2
534.1475,78.4
534.297,194132
534.3171,967.7
534.3997,964.6
534.6649,135.5
534.9002,16873.9
534.9347,105.2
535.0192,682.4
535.3003,44262.3
535.412,92.6
535.5762,47.8
535.6072,285.8
535.9493,187
536.114,101.2
536.2957,8389
536.3774,574.8
536.8973,9372.6
536.9546,159.3
536.977,146.4
537.0976,80.6
537.3939,98.7
537.6185,104
538.005,113
538.1561,305.2
538.3327,86.7
538.5265,416
538.696,270.7
538.7168,61.7
538.8316,95.6
538.8354,96.2
538.894,1233.3
538.9119,1429.6
538.9419,442.2
538.9812,307.4
539.2284,155
539.3509,66.8
539.3672,63.4
540.0489,97
540.1215,110.5
540.7482,75.2
540.9095,896.9
541.3859,1075.9
541.5098,212.6
542.181,210.1
542.2007,19.9
542.3232,201579.1
542.4598,215.5
542.4711,730.6
542.4809,155.6
542.8478,300
543.0004,883.8
543.0719,99.4
543.0928,995.4
543.3264,51864.8
543.4857,164.8
543.5397,683.3
543.6004,557.5
543.7488,50.2
544.1084,20.7
544.2747,127.2
544.3391,161250.3
544.8498,410.8
544.858,1338.9
544.8705,161.3
544.93,566.3
544.9682,87.5
545.0169,58
545.0467,173.7
545.2491,480.4
545.3425,43864.9
545.4505,67.4
545.5237,53.3
545.5358,21.6
545.5866,54.1
545.6434,111.9
545.7665,73.1
545.8532,218.3
546.0572,549.2
546.1067,107.1
546.2581,1467.1
546.3545,201519.4
546.6372,96.4
546.7576,254.1
546.8656,74
546.9736,397
547.0554,66.1
547.3577,49887.8
547.4852,155.6
547.5987,52.9
547.6362,139.2
547.7997,114
547.8539,147.2
547.8945,324.9
547.9526,151.2
548.1356,51.7
548.311,1129.2
548.3607,3842.7
549.2188,867.4
549.2907,299.6
549.3137,626.2
549.4111,112.6
549.52,132
549.5615,116.3
549.6344,330.8
549.688,44.3
549.7358,184.6
549.8148,306.5
549.8292,102.1
550.0573,573.2
550.1604,537.4
550.332,186.2
550.6325,470.8
550.8744,4562.5
551.0409,102.1
551.2338,98.3
551.3587,296.3
551.9265,525.7
551.9603,802.1
552.073,220.5
552.3657,101.4
552.4083,93.7
552.6905,829
552.8715,2020.9
552.9519,91.9
553.4974,121.7
553.5319,157.6
553.7037,42.7
553.9682,369.3
554.0013,455.1
554.0733,292.4
554.1093,123.6
554.1886,66.8
554.3434,79.9
554.769,94.8
554.7838,157.4
554.8355,200.4
554.8613,576
555.0312,155
555.1374,954.2
555.2212,56.5
555.3992,67.3
555.4245,266.3
555.537,396.8
555.5631,186.5
555.5972,118.4
556.0821,63.5
556.1358,23.4
556.1973,260.7
556.3407,782.1
556.3505,98.1
556.6482,21
556.834,434.7
556.9955,152.6
557.3075,73.4
557.6715,109.9
557.9052,79.2
558.0213,84
558.2972,61963.2
558.4378,121.7
558.5068,66.3
558.6716,66.8
558.6914,118.3
558.8806,204.8
559.0814,152.3
559.3004,13386.6
559.3959,49.6
559.6131,70.1
559.7653,62.1
559.9259,64
560.0456,523.4
560.1854,111.3
560.2035,24.3
560.2953,2143.9
560.3128,42027.6
560.3861,132.7
560.4834,846.6
560.6179,923.3
560.7629,351.7
560.9236,57.1
561.0275,222
561.3163,11464.4
561.5028,85.2
561.6309,628.1
561.6828,56.5
561.7839,120.2
562.3283,48374.5
562.3652,21.7
563.1817,95.7
563.2349,199.8
563.3319,11356.5
563.3941,196.1
563.6788,159.7
563.7944,821.9
563.8383,693.9
563.904,324.8
563.9501,571
564.2557,57.2
564.3288,1746.6
564.7072,178.5
565.0424,947.5
565.5255,905.6
566.2228,147.8
566.3233,67341.5
567.2668,57.6
567.3263,16865.3
567.3717,871.8
567.4174,396.7
567.5098,102
567.5701,53.7
567.7809,106.7
567.7913,969.4
567.8756,528.6
568.3004,21.5
568.3391,18655.9
568.4946,131.5
568.878,97.3
569.049,53.3
569.3432,3033.4
569.9114,46.5
569.9433,603.2
569.9713,143.3
570.2456,670.2
570.3257,87.3
570.3533,1763.6
570.509,91.1
570.5931,46.1
570.6443,50.1
570.8685,2065.4
570.8973,69.7
571.0174,244.1
571.062,569.3
571.2507,751.9
571.4873,166.1
571.5983,970.5
571.615,91.1
571.9261,65.9
572.1767,77.6
572.2656,619.5
572.4025,74.1
572.4426,223.8
572.5148,181.3
572.6179,500.1
572.8654,2799.8
572.9696,819.4
573.0331,587.6
573.1075,245.6
573.1314,603.6
573.1467,19
573.325,174.3
573.4295,73.2
573.6125,890.5
574.0801,68.9
574.1485,96.2
574.1847,739.4
574.2828,216.6
574.4341,658.4
574.4884,170.3
574.5029,113.1
574.8258,254.6
574.8644,425.4
575.5048,1196.8
575.6504,66.7
575.9762,90.2
576.0214,193.5
576.0591,78.5
576.2818,9349.9
576.5105,131.9
576.6005,112.5
576.7282,118.4
576.8851,8796
577.0848,20.6
577.2847,491.5
577.5666,801.3
577.6247,87.9
577.7525,59.6
577.8402,98.1
577.9758,57.6
578.2477,109.1
578.2793,1043.5
578.3479,289.1
578.5818,374.8
578.7356,212.3
578.8822,7021.5
579.1006,61.4
579.2936,64.8
579.3378,870.5
579.5828,92.7
579.7226,325.6
580.0252,191.6
580.1287,119.7
580.2626,63.8
580.3689,174.1
580.6245,135.9
580.8782,629
580.8967,2855.9
581.4556,82.7
581.4786,54.7
581.5985,844.6
581.7151,422.2
581.7918,560.3
581.8152,151.2
581.8366,1201.1
581.9435,183.8
582.0242,239.3
582.037,21.1
582.1442,253.8
582.1803,52.3
582.2166,747.3
582.249,228.7
582.2675,149.1
582.2974,19986.2
582.3264,89.6
582.3464,293.9
582.3671,170.3
582.373,146.7
582.4461,91.5
582.4726,143.6
582.7302,158.6
582.7875,722.6
582.8393,101
582.8956,1528.1
582.9459,192.6
583.0806,552.7
583.1611,301.1
583.243,20
583.3007,4310.6
583.3696,1013.9
583.4714,99.8
583.6889,1010.4
583.7093,228.6
583.8739,219.3
583.9437,154.4
583.9675,55.1
583.9934,808.4
584.3119,3239.2
584.9343,700.3
585.1057,505.8
585.4214,1356.7
585.5218,592.1
585.8045,403.9
585.8952,78.4
585.9625,397.1
586.3112,3026.1
586.4714,896.9
586.6521,94.5
586.7322,828.5
586.842,2614.7
586.9146,2382.3
586.9533,75.8
586.9874,195.6
587.0005,850.7
587.1005,105.8
587.3148,852.7
587.4978,19.2
587.6604,51.2
587.9948,121.5
588.4292,953.5
588.6965,61.3
588.839,2528.8
588.9122,587.8
588.9416,110.9
589.1831,88.2
589.2167,604
589.3383,255.3
589.5812,121
589.7467,804.8
589.8008,381.6
589.8232,75.8
589.8682,43.1
589.9142,416.2
590.2601,53.9
590.323,8420.5
590.6176,46.5
590.637,705.5
590.8469,62.8
590.9253,1024.2
591.2298,114.1
591.3266,1176.8
591.483,122.1
591.5545,258.1
591.6226,132.1
592.2548,2590.5
592.339,2372.8
592.4545,322.1
592.5952,115.1
592.6759,622.1
592.859,6438.5
593.2618,85.2
593.266,84.3
593.2935,57.8
593.5154,166
593.6934,59.1
593.7098,107.3
593.8112,806.4
594.3362,245.6
594.4604,152.8
594.4922,417.1
594.5547,226.8
594.5816,20.8
594.856,6556.9
594.8992,63
595.149,61.1
595.2412,60.8
595.7213,530.5
595.7914,64.1
595.893,515.4
596.1042,59.7
596.1944,65.3
596.5053,77.1
596.8532,2320.4
596.8711,1602.9
597.2353,415.8
597.4543,1981.6
597.4873,2816.6
597.9626,598.8
597.9963,204.4
598.3157,56.9
598.4631,1077.2
598.489,573.2
598.8704,880.7
599.1257,361.2
599.455,628.5
599.4643,853.9
599.5049,182.3
599.9573,528.2
600.2812,1240.5
600.3302,427.3
600.4653,95.8
600.5119,76.3
600.987,56.8
601.4017,544.4
601.7463,117.1
602.0926,80.4
602.2972,1475.1
602.5837,82.9
602.7074,958.8
602.8066,83.6
602.888,715.4
602.9997,98.8
603.4864,547.9
603.536,212.7
604.144,76.5
604.3703,121
604.4461,107.3
604.5292,261.6
604.842,232.7
605.3148,129.7
606.4663,114.5
606.5249,72.1
606.5386,81.5
606.9012,1279.4
607.1378,57
607.161,2385.7
607.1715,3144.3
607.2671,269
607.8071,903.8
607.9762,45.7
608.0916,414.4
608.1603,170.5
608.1738,64.3
608.2356,67.7
608.2575,465.9
608.5126,568
608.5412,103.8
608.6118,604.8
608.7307,43.2
608.8333,3064.5
608.8986,194
609.0242,537.9
609.0887,154.1
609.1477,295.9
609.2989,425.4
609.3181,122.3
609.7024,88.8
609.9861,800
610.0575,126
610.265,285
610.6878,318.1
610.6914,328.9
610.7958,340
610.83,2316
611.2265,74.6
611.4939,68.1
611.8213,216
611.8881,216.7
612.2677,99.4
612.3,387.5
612.315,61.5
612.3509,52.4
612.9786,470.7
613.1189,22
613.1565,872.2
613.4163,232.6
613.483,67.7
613.5841,394.5
613.8865,109.1
614.1549,76.8
614.3566,624.9
614.4203,72.1
614.5352,146.4
614.5711,62.5
615.7581,438.6
615.966,63.2
616.1437,92.2
616.4265,117
616.5341,48.5
616.6666,66.6
617.0214,218.4
617.2852,153.9
617.4525,272.7
617.4764,8278.2
618.4774,1128.9
618.9942,19.2
619.0877,58.5
619.4923,6638.7
619.6027,72.9
619.6287,185.8
619.6584,690.5
619.6896,69.5
619.905,110.4
620.2261,149.7
620.3142,108.4
620.4577,119.8
620.6556,48.4
620.6859,643.7
620.7295,124.3
620.8217,70
620.8836,109.6
620.9607,82.6
621.1264,151.4
621.4663,1597.8
621.4864,4426.9
621.9921,319.2
622.0534,65
622.7744,53.6
622.8455,99.6
623.0257,837
623.0483,130.1
623.1372,37546.3
623.4059,63.3
623.4704,1057.7
623.5027,433.8
623.6226,740.2
624.1409,7108
624.283,24.9
624.3806,559.7
624.4747,503.1
624.6042,71.5
624.8104,161.6
625.0054,95.2
625.142,346.3
625.2399,63
625.4962,205.8
625.6831,94.6
625.763,130.1
625.9947,581.1
626.0875,1007.5
626.1836,151.5
626.5537,565.8
626.637,555.9
627.0166,124.2
627.1295,61.9
627.2449,503.3
627.3571,21.1
627.5365,496.6
627.5623,200.6
627.706,231.3
627.9272,83.1
627.9554,59.7
628.0104,152.4
628.0316,583.3
628.1442,41.5
628.3074,351.5
628.3226,156.6
628.4456,700.2
628.5375,329.4
628.831,69.7
628.9078,606.8
628.9947,417.8
629.1541,49411.3
630.1164,210
630.137,211
630.1576,9449
630.2507,210.1
630.3171,496.6
630.4043,61.5
630.5386,318.4
630.6098,91.3
630.6471,20
630.7469,562.9
630.7725,219.2
630.9443,145.3
631.1297,974
631.1602,265.9
631.3874,83.5
631.9274,102.8
632.1436,117.1
632.1763,195.8
632.2347,82.5
632.5223,164.4
632.5906,50.7
632.9592,62.6
632.987,149.9
633.4453,929.1
633.4622,138.4
633.4783,557.6
634.1469,614.6
634.1769,311.1
634.2407,575.5
634.3441,539
634.4363,80.6
634.521,419.4
634.8433,1167.8
634.8741,136.9
635.4226,126.4
635.4434,688.3
635.4675,624.1
635.8655,102.5
636.2939,991.2
636.3993,260
636.4948,804.8
636.7451,39.6
636.7903,642.4
636.8413,2338.4
636.9453,126.9
637.1392,91.5
637.6473,46
637.6611,88.3
638.1014,235.4
638.7641,68
638.8383,713.4
638.8564,505.4
638.9453,62
639.3985,59.8
639.472,446
639.5257,74.3
640.1137,138.5
640.3297,209.3
641.188,1115.9
641.4269,51.5
641.5112,61.6
642.2878,47.2
642.3644,70.9
642.3957,74.1
642.887,53.1
643.0357,284.3
643.0953,646.3
643.1249,50
643.186,108.9
643.3949,727.9
643.5583,424
643.6976,158.1
643.975,78.1
644.2017,52.3
644.8619,411.5
645.119,25213.8
645.195,119
645.2107,20.5
645.3208,129.1
645.5402,60.1
646.1225,3584.9
646.7988,369.2
646.9838,355.8
647.0954,2818.1
647.123,329.4
647.2679,52
648.099,200.9
648.5166,64.8
648.5788,97.3
648.6887,108.2
649.1138,365.6
649.184,783.6
649.39,50.1
649.4796,936.6
649.8899,83.7
650.1061,588.3
650.2878,279.9
650.3074,19.1
650.4394,1224.1
650.6993,89.3
650.8186,2049.2
650.9091,68.4
651.1362,66546.8
651.5332,455.7
651.9355,99.7
652.0596,112.4
652.1398,12916.4
652.1789,98.8
652.2555,525.7
652.7038,323.1
652.8151,2540.5
653.0526,63.9
653.1121,2070.6
653.1421,673
653.3598,134.5
653.4376,407.7
653.8599,64.3
654.1165,139.1
654.4051,281.6
654.644,587.3
654.6786,291.1
654.6911,251.3
654.776,89.6
654.8128,2340.9
654.9768,62.9
655.4592,243.9
655.4904,219.3
655.6001,56.7
655.8576,81.5
655.9945,761.4
656.0329,123.1
656.0913,48.9
656.1079,318.2
656.1782,45.9
656.2089,366.2
656.5462,20.7
656.7988,182.8
656.9166,56.1
657.2337,101.9
658.0637,873.2
658.4394,108
658.4942,163.8
658.5774,113.3
658.6697,763.6
658.7364,519.8
659.4698,194.9
659.5446,115.7
659.9545,182.2
660.0323,177
660.0835,1352.9
660.7986,414.3
660.9089,528.4
661.0842,12270.3
661.4528,59.3
661.9986,170.6
662.088,478.6
662.262,89.5
662.2955,291.4
662.4135,211.5
662.8463,936.9
663.0479,191.8
663.0823,211.8
663.235,50.2
663.4576,88.6
663.7745,43.3
664.0028,686.1
664.0306,416.6
664.0608,228.6
664.165,54.4
664.2203,80.4
664.3189,58.3
664.4568,729.1
664.4676,766.8
664.5733,102.6
664.7475,167.9
665.4527,531.3
665.7713,146.8
665.8356,220.7
665.8588,100.9
666.1278,84.2
666.1872,86.4
666.4844,5469
667.0262,75.2
667.1009,39351.2
667.1487,152.4
667.4863,861.2
667.5229,96.8
668.1049,4715.1
668.18,60.4
668.238,687.2
668.4599,174.2
668.5557,94.5
668.6831,144.2
668.787,1043.3
668.8839,635.5
669.0779,596.3
669.108,64.2
669.2869,868
669.3277,155.1
669.4448,65.7
669.4587,233.8
669.7031,78.9
670.2027,256
670.3128,484.5
670.4067,126.3
670.5519,1086.4
670.8391,182.5
671.0843,52.8
671.1137,350.1
671.1795,59.8
671.2806,721.5
671.8818,66.9
671.9698,76
672.055,80.2
672.0691,161.6
672.2889,510.3
672.4078,480.3
672.4724,48.7
672.5601,428.9
673.1181,82181.3
673.2002,123.2
673.4794,378.5
673.4952,947.7
674.1217,15332.7
674.2368,501.9
674.4476,19.2
674.4604,159.1
674.6155,617.7
674.7519,763.7
674.8281,108.6
675.0949,431
675.1233,1664.9
675.2219,43.3
675.2332,43.6
675.4198,69.1
675.5032,515
675.5452,7383.9
675.7794,105.3
675.8809,45.4
675.9077,79.2
676.0161,56.8
676.0489,1960
676.0941,158
676.1257,170.1
676.2768,56.9
676.2985,304.2
676.5478,2378.3
676.8946,287.6
677.0119,215.5
677.0543,175.3
677.332,57.3
677.3737,569.9
677.4226,683.7
677.8602,73.5
677.9606,105.4
678.0794,358.5
678.2826,228.8
678.53,59.4
678.5634,57
678.6983,149.2
678.8407,98
679.1561,53.1
679.4153,65.6
679.8721,313.5
679.9147,82.8
680.0202,822.7
680.4142,383.2
680.4508,457.4
680.4732,214.5
680.7992,136.3
680.8268,581.4
680.9335,60
681.0048,154.6
681.2954,216.8
681.4506,213.4
681.8002,622.1
681.8645,231.3
682.0657,3044.3
682.2368,166
682.633,178.3
683.0653,9437.3
683.1508,504.2
683.1659,897.9
683.2142,83.3
683.4505,2750.5
683.5835,195.6
683.8277,693.5
683.8907,99.1
684.0696,672.6
684.2519,271.7
684.3009,229.3
684.421,64.4
684.9567,61.4
685.0187,164
685.0482,57.3
685.0712,147.5
685.4375,3461.6
685.4911,262.7
685.8472,47.1
686.2351,103.5
686.4458,78
686.7523,146.8
686.8298,58.5
686.8843,223.8
687.8803,77.6
688.5551,51.8
688.7364,77.2
689.0825,24109.2
689.0927,24883.9
689.561,2146.6
689.7234,131.8
689.769,758.1
690.0326,77.1
690.0944,4074.3
690.1367,780.4
690.4309,852.3
690.7431,99.5
691.0237,107.9
691.0693,359.1
691.0888,617.9
691.2595,73.1
691.3622,53.6
691.7557,853.3
692.1873,51.2
692.2811,284.9
692.3946,220.8
692.5313,477.6
692.5718,374
692.6208,515.4
693.0679,59.6
693.1434,199.6
693.7033,207.5
693.8351,171
693.9069,62.8
693.9953,51.4
694.0501,577.1
694.4406,549.2
694.9428,668.6
695.1001,54028.1
695.261,293.5
695.3837,109.2
695.5108,1151
695.5286,149.8
695.7498,76.2
695.8885,89.8
696.1041,9432.6
696.3868,95.5
696.8047,215.2
696.8769,79.2
696.985,603.4
697.0743,107.3
697.1047,305.3
697.4594,299.6
697.5269,8763.4
697.6443,764.8
697.7735,404.9
697.9316,747.7
698.03,541.2
698.5324,3330.4
698.6006,563.8
698.7949,563
699.1765,109.9
699.3807,51.7
699.4806,401.8
699.5073,81.5
699.6931,70.3
699.9679,891.7
700.2698,118.2
700.3041,106.2
700.4519,103.1
700.9411,736.1
701.0078,71.1
701.4106,213.1
701.5612,25507.9
701.7185,47.3
702.3432,1945.8
702.5644,10095.2
702.9579,494.4
702.9846,69.5
703.3469,146
703.4681,1442.9
703.5305,100.6
703.577,63983.6
704.0476,966.9
704.0683,740.9
704.4499,1621.4
704.5217,55.4
704.5801,26793.8
704.7547,439.2
704.903,79.9
705.0233,44.3
705.0574,5158.1
705.2999,232.6
705.3176,210.7
705.5218,105.4
705.5819,2806.3
705.9773,57.3
706.0634,495.1
706.0801,108.4
706.0906,97.4
706.371,604.4
706.5412,159.2
706.6949,124.9
706.9156,280.7
706.945,64.3
707.0353,83.1
707.2489,67.1
707.5727,44.8
707.5896,45.7
707.6296,63.2
707.6571,559.6
707.776,50.2
707.8502,649.2
707.8814,239.5
708.0191,62
708.1903,529.5
708.3813,174.5
708.7399,138.2
708.9399,80.5
709.424,675.3
710.013,508.3
710.1195,371.9
710.6012,747.1
710.7729,701.9
710.9364,154.7
711.064,15601.2
711.0754,20142.5
711.2448,87.8
711.322,643.5
711.4017,328.9
711.5439,3244.8
711.8914,495.7
712.079,2337.4
712.4875,308
712.5143,88.1
712.545,1269.2
712.7718,630.6
713.0713,577.7
713.1793,432.1
713.6632,18.3
713.699,183.3
713.9261,152.5
714.2615,212.7
714.5074,975.3
714.8493,209.9
714.9294,43.8
715.0818,87.5
715.349,170.5
715.4133,62.9
715.4743,56.2
715.4938,102.8
715.8256,112.1
716.0609,132.4
716.1348,407.9
716.2891,903.9
716.4322,1146.3
716.4973,182.5
716.5313,446.4
716.6419,593.8
716.9512,976.7
717.0821,26276.3
717.1351,310.6
717.1915,653.8
717.5937,115.1
717.6544,80.5
717.7416,83.3
717.766,64.4
718.0857,3212.7
718.2797,260.3
718.7448,132
718.8057,540.3
718.8874,146.5
718.9848,236.8
719.0118,533.1
719.104,78.7
719.2206,46
719.61,587
719.7644,255.4
719.9172,100
720.0162,100.7
720.1703,87
720.5867,149.7
720.6317,106.4
720.825,1184.9
720.9336,52.5
721.0168,258.2
721.3157,181
721.3718,550.4
721.4801,22776.1
721.5054,27.6
721.529,105.9
721.629,472.6
721.7176,151.9
721.8107,366.3
722.0097,138.4
722.0363,1075.9
722.2291,148.6
722.3336,97.3
722.4828,8607.6
722.6894,63.5
723.4951,497.2
723.5434,26659
723.6153,635.9
723.6376,314.2
723.6727,973.1
724.3283,586.8
724.4285,217.7
724.5464,10263.8
724.8928,744.4
724.9849,152.7
725.0886,690.5
725.3461,154.8
725.537,745.7
725.5591,63614
725.6936,955.3
725.8685,51.1
725.9074,211.3
726.028,493
726.5422,127.3
726.5625,23678.5
726.6977,150.5
727.033,3899.2
727.1815,520.2
727.2505,85.1
727.4351,174.3
727.5626,1345.7
727.7227,307.3
727.9418,56.3
727.9979,231.9
728.0519,125.7
728.1619,798.2
728.2517,182.5
728.785,633.9
728.9204,518.2
729.1643,115.7
729.5931,7942.8
729.7976,937.7
729.8194,134.7
730.1668,109.3
730.1827,250.8
730.4014,90.6
730.5364,1373.6
730.5979,1030.7
730.7313,161.1
731.4075,216.9
731.5082,718.2
731.6079,4386.5
732.0248,83.3
732.4697,102.9
732.4949,77.4
732.5555,5499.9
732.8303,435.2
733.0452,10017.4
733.0573,10711.6
733.0868,183.7
733.3408,309.6
733.5632,135.5
733.616,600.2
733.7115,61.4
733.741,87.6
733.7989,115.9
734.0604,351.5
734.1034,18.6
734.5732,1373.9
734.8411,207.8
734.9534,1091.6
735.0379,62.8
735.0589,230.4
735.5738,627.7
735.6221,482.5
736.3508,592.4
736.7335,57.8
736.8437,60.4
736.9061,18.5
737.0002,82.1
737.0089,74.8
737.3186,22.4
737.3865,513.5
737.4535,6419.1
737.4888,786.3
737.955,997.4
738.0226,77.9
738.0439,68.2
738.3463,851
738.4084,263.9
738.4543,889.3
738.7826,72.7
738.8363,50
738.917,244.7
738.9495,109.7
739.0357,754
739.0643,13481.2
739.47,154.3
739.4966,80
739.5182,3411.1
739.8295,116.1
739.9089,309
740.0679,382.9
740.1768,790.4
740.1972,44.7
740.337,54.5
740.5188,102.1
740.7491,186.3
740.8023,1656.3
741.5338,8158.2
741.7861,87.5
741.9982,47.6
742.0063,50
742.0379,290.6
742.2141,702.4
742.3026,234.9
742.3955,169.6
742.5372,2105.1
742.5766,12578.9
742.618,565.4
742.8877,126.2
743.2649,207.4
743.3979,968.7
743.5793,1910.2
743.6909,449.8
743.9902,95.9
744.2814,147.6
744.3277,126.8
744.4128,53.5
744.5544,863.7
744.5931,7204
744.6848,296.3
744.999,88.1
745.0203,169.9
745.1007,531.3
745.2874,45.9
745.321,470.2
745.4061,110.2
745.4411,82
745.4799,19595
745.5966,1449.9
745.7551,104.3
746.0498,81.9
746.2532,101.8
746.4842,7775.4
746.9042,1519.3
747.0508,263.9
747.1232,45.1
747.1453,171.1
747.2874,213.9
747.4955,2941.9
747.5438,379.2
747.7712,62.1
748.0106,140
748.2204,162.1
748.5006,1866.2
749.013,1266.3
749.2459,215.7
749.4734,245.5
749.5107,1420.7
749.6414,117.2
749.7103,56.2
750.023,620.6
750.4872,150.2
750.9001,400.7
751.0286,268
751.3478,481.5
751.536,239.3
751.5748,6043.4
751.7297,896.4
752.1055,52.3
752.2036,129.1
752.5233,3140.5
752.5406,129.4
752.5787,759.7
752.6956,110.7
752.867,767.2
752.9767,106.1
753.0328,149.4
753.343,534.5
753.4441,540.2
753.5912,2306.2
754.1296,66
754.2305,18.9
754.3673,239.4
754.5385,5924.2
754.7083,251.4
754.8442,325.7
754.982,111.6
755.0394,8303.4
755.0881,799.7
755.2287,161.7
755.2532,56.2
755.5186,627.8
755.6997,40.1
755.8049,270.4
755.924,106.5
756.0371,884.2
756.2226,106.2
756.3909,540.2
756.5555,16877.9
756.7167,43
756.747,916.7
756.8531,128.5
757.0136,101.4
757.2793,144.9
757.5598,4892
757.673,86.5
757.7538,19.7
758.3045,530.7
758.3667,45.6
758.3988,307.1
758.5718,626485.4
758.6962,62
758.8503,100.2
759.2215,114.3
759.4934,147.6
759.5752,276739.9
759.7758,85.3
759.8676,137.4
760.0792,298.4
760.5887,150500.3
760.6399,118.1
760.9696,50.8
761.013,78.6
761.0464,5580.2
761.1722,388.3
761.2928,212.5
761.4523,3959.4
761.4907,583.8
761.5913,72720.7
761.7886,122.6
761.9315,50.1
762.011,548.8
762.0534,1079.2
762.2385,21.5
762.3019,71.1
762.3307,153.2
762.4127,95
762.4417,146.1
762.4977,90.3
762.594,12504.4
762.9678,1110.9
763.0107,394
763.4278,56.7
763.5511,701.3
763.6048,220.2
763.8268,90.4
764.032,173.8
764.2046,102
764.2585,235.7
764.3516,44.7
764.5583,7199.4
764.9331,828.8
764.9737,1914
765.4371,721.6
765.5644,1503.8
766.3363,81.7
766.5163,170.4
766.5764,29708.7
766.6587,96.5
766.8034,222.3
766.8388,877.3
767.3809,1012.8
767.4031,945.2
767.4476,447.6
767.5509,853.1
767.5801,10602.8
767.6904,56.6
767.9947,123
768.0978,178.2
768.1569,556.4
768.2734,196.1
768.3171,108
768.4186,94.2
768.474,41.6
768.5539,498.1
768.5929,26298.5
768.7483,98.6
768.8159,714.9
768.9465,307.5
769.0344,341.1
769.2797,45.3
769.373,66.2
769.412,47.6
769.4793,2527.4
769.5625,72.3
769.5956,10459.3
769.9147,139.1
770.1154,142.3
770.1332,19.6
770.1496,54.4
770.2809,1100.9
770.385,20.4
770.5697,130.2
770.6106,2109
770.8229,24.5
770.8812,220.2
770.9933,4471.6
771.0884,79.5
771.1561,239.6
771.4838,236.7
771.6102,250.4
771.9247,58.5
772.0104,110
772.153,685.6
772.4719,478.1
772.5881,7540.2
773.0009,239.4
773.0566,58.5
773.2761,22.1
773.4362,17.7
773.4461,18.6
773.5099,1028.8
773.5934,1612.9
773.6514,65.8
773.8485,371.5
773.8991,91.8
774.221,772.8
774.3754,915.4
774.4532,50.2
774.5668,291.8
775.5254,660.2
775.773,194.1
775.9507,164.6
776.1578,387.8
776.6232,773.2
776.8476,123.6
777.0106,3363.2
777.0406,67.5
777.2987,284.9
777.3514,298.5
777.7744,375.6
778.2689,694.3
778.5385,12182.5
778.6545,154.3
779.5424,5890.3
779.6044,1082.9
779.9872,127.5
780.0148,76
780.5539,451524.2
780.8837,703.6
781.5573,207680.3
781.6272,77.6
781.6908,183.1
781.9453,647.2
782.1478,999.6
782.1818,79.2
782.2854,106.1
782.5717,569086.4
783.0287,7191.5
783.206,687.4
783.225,229.4
783.5749,271240
783.8333,407.8
783.9579,107.2
784.0557,228.3
784.4256,113.5
784.5888,165087.9
784.7999,150.6
784.8363,184.2
784.8871,627.9
784.9371,225.3
785.1694,473.3
785.2871,196.8
785.3707,1115.1
785.4355,69.6
785.5913,83665.5
785.6558,2639.1
785.8394,54.6
785.9817,108.5
786.1049,587.5
786.1519,104.7
786.3691,1082.3
786.3974,384.6
786.4294,514.1
786.6036,164307.9
786.6561,653.4
786.9671,515.6
787.6066,80934.5
787.6721,720
788.5588,13047.6
788.6077,12346
788.6201,4408.8
788.6551,135.2
788.6911,105.5
788.7163,890.3
788.7875,84.8
788.9591,333.1
789.1511,602.3
789.5646,492.1
789.6235,2181.7
789.9598,96.7
790.049,1131.5
790.1002,908
790.4546,56
790.5747,15254.3
790.892,60.9
791.068,725.1
791.423,475.9
791.5778,2476.5
791.628,568.6
791.7899,127
792.3778,143
792.5925,7386.8
792.6641,125.1
792.9837,449
793.1899,103.6
793.2386,102.1
793.339,162.9
793.5579,847.6
793.5964,2950.9
793.6629,165
793.9901,531.5
794.1682,344.3
794.1872,453.3
794.2713,44.3
794.3274,85.8
794.512,1495.5
794.569,3498.4
794.6084,24255.2
794.9653,1664.9
795.1553,20.6
795.2703,358.7
795.3701,134.6
795.5286,1305.9
795.575,1065.1
795.6117,9148.4
795.679,147.4
795.734,137.4
795.8267,413.5
795.8587,177.4
796.028,130.8
796.1312,460.9
796.3209,678.1
796.5276,95678.1
796.5874,5204.6
796.6237,965.1
796.9869,65.5
797.5313,39053.2
797.5885,505.4
797.6279,677.4
797.7702,406.9
798.0583,102.5
798.174,511.5
798.4609,70.3
798.5453,17658.9
798.6088,165.3
798.6779,645.6
798.78,387
798.8716,51.6
798.9159,294.9
798.9464,72.7
799.0011,786.3
799.1631,503.8
799.5482,3103.9
799.5895,116.7
799.6747,54.7
799.7946,93.8
799.8164,242.4
799.9265,198.5
800.2518,95.6
800.7336,140.9
800.9724,95.5
801.0803,70.5
801.2475,139.3
801.2819,25.5
801.6868,197.7
801.7855,480.2
801.8435,194.8
802.5387,7649.3
803.1475,73.1
803.5402,2927.9
803.9499,371.6
804.2711,1863.6
804.5538,345891.3
804.6841,158.2
804.7809,139.9
804.8109,655.9
805.061,935.2
805.4386,856.1
805.5572,164784.4
805.7117,68.7
806.3773,728.1
806.5284,92.3
806.5713,209577
806.6373,127.7
807.2429,88.4
807.5743,103232
807.6416,206.8
808.587,153290.9
808.625,742.4
808.6472,1274.8
808.7503,564.9
809.0008,116.8
809.4949,102
809.5897,73951.9
810.1878,111.2
810.6036,145646.4
810.8797,1316.2
810.9991,35.2
811.1422,225.3
811.6067,75721.3
811.6714,3415.5
811.7962,145.8
812.0408,78.9
812.2479,2628.9
812.3131,776.2
812.6073,6138.5
812.6215,16490.1
812.6743,1633.8
813.4368,193.6
813.5623,110.4
813.624,9173.9
813.6873,6628.5
813.8923,75.3
814.4446,256.9
814.5753,1154.3
814.6909,1673.1
814.748,264.4
815.1724,276.6
815.3748,579.2
815.5794,583.5
815.7031,75.4
815.976,95.6
816.4422,55.2
816.5906,9167.4
816.7023,53.8
817.5927,2229.5
817.7083,51.5
817.8353,109.1
818.4995,268.5
818.5719,764.5
818.6085,1107.8
818.8127,586.6
818.9018,78.9
818.9389,719.3
818.9981,98
819.1236,190.1
819.4885,77.7
819.7025,545.6
819.8366,934.1
819.9824,728.6
820.1618,503.4
820.1999,128.4
820.3156,87.7
820.3865,1027.6
820.5279,75586.8
820.5614,790.2
820.5883,2812
820.6283,50.4
820.647,279.2
820.7923,344.4
820.9691,172
820.9821,142.6
821.5314,33943.4
821.6193,69.8
822.2425,422.7
822.3161,20.5
822.5452,20023.6
822.9522,48.9
823.0984,207.4
823.3193,273.6
823.482,130.8
823.5471,5799.4
823.7273,25.1
823.8798,75.7
824.0839,1002.7
824.3056,129.3
824.5598,18669.8
824.6532,46.5
824.6975,891.9
824.8992,111
824.9379,600.7
825.1604,849.1
825.2868,668.6
825.5622,4675
825.8559,157.2
825.9662,4104
826.6039,689.5
826.6517,913.3
826.6909,573.4
827.0534,70
827.1889,581
827.4274,796.4
827.5929,402.2
827.7237,75.7
827.8062,81.7
828.2368,54.8
828.4259,107.1
828.5538,69807.6
828.6333,116.8
828.9252,59.2
828.9935,751.1
829.0898,75.7
829.1392,707.2
829.2674,62.6
829.4201,732.8
829.4482,933.5
829.5573,35485.6
829.6943,1471.5
829.7646,124.7
829.8236,296.2
829.9591,336.9
830.1703,77.5
830.5705,46185
830.8215,162.7
831.018,123.2
831.0525,550.5
831.4233,600.4
831.5735,20964.7
831.6604,977.8
831.9428,124.2
832.0174,108.4
832.1631,146.9
832.2165,61.7
832.3426,52.8
832.4155,94.5
832.5857,83886.5
832.623,47.6
832.8045,1580.5
833.0735,48.1
833.1549,111.5
833.3332,82.1
833.4602,72.3
833.5887,41631.3
833.6528,1123.7
834.5326,108
834.6037,23842.2
834.7933,153.6
834.8335,208.5
835.0159,146.6
835.1488,3094.9
835.1779,101.7
835.2351,888.2
835.2897,422.6
835.4288,91.6
835.5019,238
835.6068,10532.1
835.6682,248.3
835.7353,1208.2
835.7648,341.4
835.9507,766.9
835.9879,494.4
836.0319,467.1
836.1507,328.8
836.6207,868.3
836.6673,71.7
836.7731,92.2
836.9569,1678.9
837.1153,59
837.5099,148.6
837.6014,458.3
837.6234,483
837.8296,384.4
838.058,55.8
838.2878,1117.1
838.4113,105.3
838.5143,743.7
838.9983,47
839.2327,96.2
839.4673,105.2
839.6415,149.2
839.7098,45.2
839.8848,140.8
839.911,113.6
839.9302,194.7
839.994,713
840.0014,826
840.0818,19.3
840.2651,3104.8
840.4082,108.7
840.5724,579.2
840.6769,1011
840.7641,478.8
840.8441,365.8
840.8768,121.5
840.9226,463
841.643,607.1
841.8723,1795.7
842.4318,62.3
842.9918,904.2
843.5936,103.1
844.5281,16332.3
844.6515,144.9
844.8904,59.3
844.9355,1292.4
845.0002,699.3
845.1338,401.3
845.2462,138.4
845.5304,1799.1
845.733,107.7
846.4169,109
846.5427,4614
846.5824,378.4
846.7724,247.4
846.7908,442.8
847.4778,68.7
847.5467,203.8
848.1348,61.4
848.559,16126.3
848.7077,233.6
849.3954,106.2
849.5243,111.5
849.5626,2603.1
849.7145,295.1
850.2707,90.2
850.4432,127.5
850.576,161.9
850.8869,170.7
851.0661,217.5
851.0958,674.5
851.3861,682.7
851.4649,617.7
852.034,101.8
852.5498,216.4
852.6636,959.1
853.2483,708.6
853.5678,2585.4
853.5995,153.2
853.6377,51.3
853.8364,554.4
854.1194,74.1
854.2668,1005.2
854.7468,368.3
854.9105,782.3
855.0631,725.1
855.1894,58.6
855.5959,654.3
855.6164,1213.7
855.6608,817
855.7227,81.9
855.9454,63.6
856.0132,79.9
856.1348,67.2
856.3253,876
856.4558,416.9
856.5861,3718.4
856.8463,452
856.9946,340
857.128,1149.8
857.256,259.2
857.3026,596.6
857.3566,61.8
857.5036,904.5
857.5899,396
858.2804,125.9
858.6037,50.1
858.8075,311.2
858.9868,57.5
859.02,473.4
859.0419,479.4
859.0949,138.4
859.3524,509.7
859.3844,84.5
859.5407,83.2
859.6775,65.6
860.2421,1246.8
860.6581,197.9
860.7446,548
861.0176,142.7
861.048,117.2
861.0696,96.9
861.5502,113.6
861.5733,527.6
861.6947,107.9
862.1352,903.8
862.5796,45.1
862.6074,85.8
862.9626,252.3
863.1988,2825
863.3659,140.8
863.5118,820.2
864.1072,83.8
864.2518,1058.6
864.3361,1454.2
864.6492,304.8
864.8829,870.2
865.6647,176.6
865.7927,153.7
866.4562,1425.9
866.529,43.3
866.5553,668
866.873,178.9
866.9741,311.6
867.0988,90.4
867.1489,21.9
867.1943,1007.3
867.5422,146.8
868.2365,632.5
868.2764,292
868.4313,112.1
868.6961,333.3
868.8971,1632
868.9561,148.9
869.0681,1600.4
869.1306,118
869.2239,77.4
869.2577,441.6
869.2734,141.1
869.4833,1943.9
869.5396,1115.7
869.5939,286.8
869.6194,456.8
869.6639,1062.3
869.7462,1138.2
869.7784,1930.7
869.8134,2901.9
869.8491,3434.8
869.8609,3247.2
869.8833,2290
869.9032,2560.5
869.9479,3713.9
869.9723,3038.9
870.0399,136.4
870.0661,828.5
870.2135,438
870.663,109.4
870.7124,530.9
870.8697,1537.2
870.9077,1021.5
871.6873,88.5
871.7176,2028.6
871.9136,1533.9
872.0038,844.2
872.0547,114.5
872.5549,1309.4
873.4316,1684.9
873.6344,512.2
873.6533,134.5
873.6862,378.5
874.2013,712.6
874.2405,1243.3
874.2975,22.8
874.5959,54
874.8704,62.6
875.0849,162.2
875.1286,809.8
875.5093,166.9
876.4726,604.7
876.7053,522.4
876.8387,1734.5
876.8655,1195.4
877.0086,143.8
877.0865,45.3
877.4748,48.7
877.7497,904.7
877.7761,639.8
878.054,909.9
878.0865,2329.8
878.2399,372.6
878.3905,373.9
878.5054,533.1
878.6308,88
878.7333,196.1
878.7749,114.4
879.0587,53.6
879.1072,86.2
879.5332,122.4
879.8868,79.8
880.0951,360.7
880.4995,1035.5
880.6175,111.9
880.6557,1162.9
880.7434,240.4
880.8853,745.4
881.0242,552.8
881.5148,420.2
881.5382,86.3
881.6787,72.4
882.2588,1646.5
882.348,92.4
882.6205,22.1
882.9367,1868.2
883.112,1010.2
883.5077,23.2
883.7528,1487.4
883.8271,60.7
884.1063,63.1
884.7895,489.6
884.8899,713.2
885.0905,183.1
885.2915,1038.2
885.6635,359.9
885.8159,1329.2
886.1465,67.3
886.2667,549.1
886.4533,369.1
887.6737,1001.3
887.7283,58
887.7644,3026
887.7927,90
887.9023,389.9
887.9241,72.3
887.9675,3024.5
887.9961,75
888.3822,69.8
888.5032,64.1
888.5396,668.4
888.6986,1587.5
888.8019,69.3
889.103,189.9
889.3234,60.3
889.6072,159
889.7284,1146.5
889.7732,443.4
889.8335,121.8
890.1505,91.3
890.7164,48.4
890.8315,128.1
891.1192,78.8
891.3404,332.9
891.4159,212.8
891.5967,2717.3
891.6419,814.9
891.9782,221.8
892.0257,114.9
892.4562,101.4
892.5888,106.4
892.6732,1586.2
894.0017,675.6
894.1561,870.3
894.2612,108.9
894.2869,134
894.4003,594
894.4219,746.4
894.4754,1183.6
894.8452,162.1
894.8883,621.7
895.1636,699.7
895.2323,491.6
895.3525,783.1
895.4517,125.5
895.4794,954.3
896.2807,640.3
896.583,402.1
897.3793,101.3
897.9022,629.2
898.3644,1327.1
898.4045,664.9
898.6102,59.2
898.6772,898
898.7326,480.9
898.7893,26
898.8575,1014.5
899.0917,137.3
899.2244,740.9
899.636,271.5
899.8964,860.4
900.0469,190.8
900.1202,2689.6
901.2034,57.5
901.3182,736.1
901.6661,870.8
901.7359,194.3
901.7864,96.7
902.1971,1291.2
902.2944,92.3
902.3654,405.9
903.2001,175.2
903.5216,1606.8
903.7619,504.8
903.8076,716.4
903.9539,1589.4
904.0245,1834.1
904.1276,49.9
904.2181,727.9
904.3791,745.5
904.5222,792.9
904.6496,47.7
904.7241,121
904.9351,85.9
905.2272,1744.3
905.4365,1389.1
906.0939,119.4
906.2727,2305
906.3142,104.5
906.5815,99
906.7821,136.6
906.8257,1193.3
906.9238,672.3
906.9313,640.4
906.989,103.5
907.6391,580.3
907.8736,696
907.8813,689.3
907.9278,635.3
908.4037,1062.3
909.0129,254.6
909.1884,389.4
909.2605,443.9
909.3339,106.6
909.3725,1575.1
909.6685,1578.3
909.7762,73
910.0824,659.6
910.1287,276.6
910.3229,60.4
910.3835,1606.7
910.5431,690.9
910.9521,533.7
910.9899,219.1
911.0495,759
911.4333,843.7
912.4214,298.1
912.8217,654
913.0971,168.6
913.4249,1139.8
913.5994,180
913.8212,273.8
914.164,703.5
914.5705,54.8
914.8365,927
915.4202,831.6
915.59,2710.2
915.8736,19.6
915.9517,49.1
916.0654,3353.2
916.1715,1977.3
916.2138,757
916.4896,809.3
916.5463,894.7
916.9086,361.9
917.5497,69.1
918.2536,336.2
918.3859,101.9
918.5526,269.5
918.9006,172.7
919.259,732.3
919.6399,1073.5
919.9796,1452.4
920.0687,302
920.2362,720.8
920.5192,76.2
920.6877,412.9
920.9323,56.7
920.9955,1249.4
921.6186,505.3
921.8295,597.2
921.8871,134.4
921.942,265.9
922.2871,327.1
922.563,597.3
922.6316,714.2
923.128,229.2
923.2946,404.7
923.7053,184.3
923.8935,218.1
924.1556,451.4
924.204,463.1
924.4519,156.2
924.679,822.9
924.825,111.7
925.9865,188.6
926.5343,1893
926.8105,234
927.448,288.5
927.9398,1965.7
928.2234,237.9
928.2823,629.1
928.3759,1322.6
928.4333,919.4
928.4573,649.5
929.3393,196.5
929.3817,168.6
929.7037,235.6
929.8544,2809.2
929.9215,1499.8
930.5958,696
930.6367,80.7
930.7238,197.9
930.8829,105.9
930.9861,419.7
931.0828,2403.2
931.2329,905.8
931.3314,352.6
931.72,61.8
931.8205,829.4
932.0427,47.7
932.0978,116.5
932.1589,634.2
932.329,1048.6
932.5208,151.6
932.9299,280.6
933.0458,180.6
933.1278,231.5
933.4012,974.2
933.5892,631.4
933.6293,62.3
933.7367,110.2
934.0611,65.4
934.3557,252.4
934.5087,643.6
934.5861,291.7
934.7425,754.2
935.0821,670
935.1334,115.7
935.6525,643.6
936.0527,87.2
936.2585,18.9
936.4852,61.8
936.6516,189
936.7153,115.8
936.7617,1564.7
936.9975,207
937.4099,1225.3
937.4605,59.3
937.6357,340.1
937.7807,112.9
938.0309,1514
938.0875,55.6
938.1637,1114.8
938.1905,22.2
938.3282,139.2
938.3639,21.9
938.4421,104
938.5825,56.3
939.0525,954.3
939.8222,2371.8
940.1677,861.5
940.4864,264.8
940.5945,289.4
940.6165,127.4
941.0172,2485.2
941.6309,1467.6
941.7291,50.1
941.8012,601.9
942.076,2887.8
942.2768,1795.7
942.3903,145.6
942.4719,2011.8
942.9428,407.1
943.1345,162.2
943.2933,1532.3
944.0939,1483.8
944.1306,1001.3
944.2387,124.9
944.3113,172
944.4972,233.5
944.5984,943.2
945.3174,168
945.6053,70.7
945.7725,197.9
945.8651,553.8
946.123,1339.8
946.6642,84.7
946.7036,71.9
947.2252,173.1
947.7429,704.1
947.7937,117.1
948.0831,1869.4
948.1274,385.3
948.2305,162.7
948.73,204.4
948.962,19.6
949.0801,858.9
949.9744,403.4
950.1213,624
950.1756,100.1
950.3319,56.2
950.3648,128.4
950.4484,67.6
950.5186,84.3
950.6546,464.9
950.7737,1404.5
950.9395,505.2
951.0276,183.3
951.2368,830.9
951.2613,121.5
951.5886,20.6
952.2876,72.6
952.4902,306.6
952.5349,632.7
952.9534,134.6
953.3036,881.5
953.455,1443.7
953.4714,1378.1
954.2054,46.9
954.318,1672.8
954.7879,241.2
954.9397,532.3
955.0821,1888.8
955.1977,187.5
955.2942,1482.8
955.4482,686.4
955.6115,644.2
955.6961,611.6
955.7329,396.4
955.8124,202.6
955.9249,410.5
956.6185,168.7
956.9848,852.1
957.2025,356.2
957.3441,52.3
957.5918,1339.2
957.6548,175.1
957.7168,22.9
958.1663,1829.4
958.203,84.2
958.322,245.1
958.6527,892.4
959.1837,78.7
959.2682,115.2
959.3313,582.4
959.9532,48.3
960.0729,1221.2
960.9095,1200.9
961.0431,60
961.1653,66.7
961.2575,400
961.3957,1180.7
962.0835,165.5
962.3044,70
962.3687,74.8
962.5104,894.1
962.6599,136.6
962.854,81.9
963.3141,289.2
963.3694,430.4
963.4491,608.2
963.4779,571.7
963.6125,147.5
963.6674,1206.8
963.971,906.8
964.4859,918.8
964.5993,1440.3
964.7067,572.6
964.7736,86
965.2081,69.8
965.3027,288.7
966.0017,87.2
966.7944,138.1
967.0858,718.2
967.1374,18.7
967.2329,484.2
967.3635,2034.6
967.4238,521.6
967.7673,636.7
967.8125,448.9
968.1632,175.4
968.3808,103.5
968.5003,991.6
968.5406,2005.1
968.937,1193.1
968.9804,368.6
969.0145,2171.2
969.0964,947.1
969.1147,213.2
969.1829,116
969.2209,147.6
969.3053,3668.4
969.4023,75.2
969.5048,160.6
969.5608,1100.7
969.6737,118.7
969.7521,2296.8
969.9932,1029.7
970.2326,400
970.6268,172.8
970.7625,161.1
970.8543,77.4
971.1907,1442.9
971.6265,1477.8
971.8769,684.8
972.1037,319.9
972.2059,948.2
972.7605,565.4
972.9183,1209.5
973.0062,1004.3
973.1856,1669.3
973.2401,274.5
973.4278,108.9
973.5156,68.6
973.6369,302.4
973.6708,97.5
974.3309,93.3
974.4476,1118.9
974.5537,1214.4
974.7233,2653.2
974.764,987.9
974.9354,60.7
975.1054,105.5
975.3145,605.3
975.3472,758.3
975.433,118.2
975.8031,2406.6
975.9307,1513.4
976.2004,1280.8
976.4698,177.4
976.5163,1563.6
976.6098,956.9
976.8615,186.4
977.6495,125.2
977.7032,55.1
977.8837,115.7
978.1673,1049.5
978.214,814.5
978.2673,589.1
978.7193,103.6
979.0249,507.6
979.0411,523.6
979.1995,150
979.598,50
979.6192,54.3
979.6622,165.1
980.0926,1806
980.3098,313.7
980.4777,255.2
980.8195,665
980.9733,831.9
980.9986,1228
981.1545,582.9
981.219,206.1
981.3926,118.8
981.5396,655.7
981.8809,455.4
981.9772,911.9
982.0578,1327.8
982.1436,2031.2
982.2182,1079.2
982.3143,243.9
982.5519,465.9
982.7476,2081.1
982.8386,1188
983.3084,209.1
983.4465,379.4
984.1621,1230.2
984.6088,1938.8
984.858,108.6
984.9542,2541.3
985.025,299.7
985.533,459.2
985.9155,79.6
986.1357,741.8
986.4383,214.5
986.9301,556.6
987.0482,211.8
987.2073,53
987.8223,1382.5
988.7021,489.3
988.7254,106.6
988.9418,1215.8
988.9903,88.4
989.0503,132.5
989.1605,1181.4
989.5427,860.6
989.8011,91.7
990.0526,1225.1
990.593,662.2
990.8709,1319.4
991.1254,56.9
991.3783,1420
991.603,774.6
991.6406,62.7
992.4428,71.8
992.4923,93.5
992.7371,791.3
992.8135,1166.9
992.8991,98.2
992.9295,225.9
993.0679,1061.5
993.5103,271.4
993.5572,1584.8
994.0511,991.8
994.268,1517.3
994.3441,1301.9
994.6734,1050.5
994.6918,1101.8
994.737,241
994.8328,651.8
995.2367,2646.4
995.5241,2962
996.3456,1487.2
996.4326,97.8
996.6442,1432.6
997.0029,1824.7
997.2076,1804.3
997.2863,21.5
997.5003,238.6
997.59,86.9
997.619,17
997.7003,129.9
997.8583,794.5
997.948,779.6
999.0035,152.2
999.0446,1220.7
999.0751,56.8
999.8461,89.2
