SPECTRUM - MS,
490.RAW,
FTMS + p ESI Full ms [50.00-1000.00],
Scan #: 1-40,
RT: 0.01-1.97,
AV: 40,
m/z,Intensity

50.0064,39
50.0079,817.2
50.0193,63.8
50.0287,873.6
50.0393,590
50.048,586.1
50.0486,235.3
50.0697,110.3
50.0713,425.3
50.1011,117
50.1124,188.4
50.1194,137.3
50.1228,146.7
50.1285,224.1
50.1315,43
50.1365,58.2
50.1442,37.8
50.1556,682.2
50.1574,42.5
50.1602,120.5
50.1773,45.3
50.2012,330.6
50.2364,53.4
50.2365,48.7
50.2369,167.1
50.2455,643.2
50.2474,70.3
50.2556,128.8
50.2636,109.3
50.2794,304
50.2813,211.4
50.2817,234.3
50.2853,299.2
50.2924,56.7
50.3145,118.8
50.3254,62.8
50.3402,79.3
50.3482,651.8
50.3493,49.9
50.376,227.9
50.3898,52.2
50.3957,185.8
50.3977,343.8
50.401,189.1
50.4129,249.2
50.444,590.8
50.4449,133.7
50.4521,104.2
50.4576,46.7
50.459,44.2
50.4623,54.1
50.4712,181
50.4872,97.9
50.4914,215
50.4944,52.9
50.5056,203.4
50.5399,16.8
50.5423,145.8
50.553,215.1
50.5844,79.3
50.5917,115.3
50.5936,377
50.5953,39.9
50.597,60.3
50.6027,239.7
50.6077,112.3
50.6169,67.5
50.6229,698.2
50.6339,58.2
50.6368,64.4
50.6476,149.4
50.6515,35.9
50.6849,82.8
50.6863,43.2
50.6879,108.4
50.7059,345.4
50.7209,18.8
50.7512,45.3
50.7558,52.3
50.7573,41.3
50.7611,44.1
50.7735,161
50.7738,61.8
50.7805,249
50.7987,61.5
50.8135,374.7
50.8166,60
50.8215,638.9
50.8242,42.5
50.8376,62.5
50.8435,46
50.8625,119.8
50.8806,54
50.8867,67.3
50.8901,437.8
50.8905,44.1
50.8908,338
50.905,102.1
50.9217,36.9
50.937,133.5
50.9464,125.4
50.9716,100.6
50.981,149.8
50.9869,62.1
50.9948,106.8
50.9962,215.5
51.0105,56.2
51.0155,40.3
51.0174,175
51.0567,169.8
51.0937,298.3
51.0948,39.2
51.1117,182.9
51.1158,207.1
51.1191,358.8
51.1226,98.6
51.1261,16.8
51.1361,335.4
51.1405,175.6
51.165,183.7
51.1703,17.9
51.1738,304
51.1745,70.5
51.1897,173.5
51.1935,44.3
51.2313,314
51.2349,83.5
51.2355,38
51.2851,81
51.313,18.8
51.3219,316.6
51.3224,43.2
51.3339,714.2
51.3374,45.5
51.3424,16.8
51.3585,103.2
51.3587,381.3
51.36,656.8
51.3669,66
51.3707,43.5
51.3815,52.9
51.3883,17.2
51.393,64.2
51.3943,18.3
51.4429,162.4
51.4522,18.9
51.4551,54.7
51.4586,125
51.4632,407.7
51.4654,93.5
51.4723,45
51.4772,47.8
51.4789,550.7
51.497,330.7
51.5415,45.4
51.5432,149.4
51.546,553.7
51.5572,197
51.5642,143.3
51.5782,164.2
51.59,677.4
51.596,36.6
51.5987,57.7
51.6026,160.6
51.6045,124.7
51.6094,72.2
51.618,43.1
51.6235,135.6
51.6444,116.1
51.6528,53.6
51.6634,193.1
51.6835,143.2
51.7176,708.6
51.7348,78.3
51.7436,47.8
51.7445,181.9
51.7506,70.3
51.7809,60
51.791,330.2
51.7946,103.7
51.8066,67.1
51.8108,211.2
51.8215,166.4
51.8252,214.5
51.8364,44.6
51.8445,53
51.8833,18.1
51.9213,54.3
51.9319,82
51.9324,455.9
51.9501,171.9
51.9547,16.2
51.9631,44.9
51.9928,165.8
51.9945,394.8
51.9953,883
52.0007,181.3
52.0171,269.5
52.0214,44.1
52.0258,52.5
52.0551,74
52.0604,71.4
52.0686,108.9
52.075,804.9
52.0824,165.6
52.0859,154.2
52.1026,17.9
52.1057,56.3
52.1091,54.3
52.1341,104.2
52.1389,97.6
52.1472,103.9
52.1539,141.4
52.1713,42.2
52.1732,430.4
52.1906,183.5
52.2047,42.2
52.2069,81.2
52.2168,698.5
52.2178,170.3
52.228,219.1
52.2338,45.6
52.2374,69.1
52.2421,62.5
52.2511,47
52.2613,53.6
52.2713,44.4
52.3488,42.7
52.4308,622.2
52.4578,653.1
52.4623,386
52.4707,53.9
52.4957,17.2
52.5069,145.3
52.5077,79.2
52.5248,379.6
52.5435,105.9
52.5464,682.6
52.5499,167.4
52.5622,171.3
52.5646,17.2
52.5742,269.4
52.5842,43.8
52.5845,120.2
52.624,62.7
52.6394,118.1
52.6415,53.1
52.6444,88.9
52.6476,390.2
52.6512,49.1
52.6689,42.7
52.6768,53.6
52.6775,75.4
52.6845,698
52.6968,132.4
52.7019,67.7
52.7078,80.2
52.719,685.7
52.728,297.3
52.7356,39.1
52.7435,153.7
52.7549,69.1
52.7775,120.8
52.7867,298.8
52.7931,164.7
52.8066,151.6
52.8075,68.1
52.8079,150.3
52.8087,1081.7
52.8091,479.7
52.8097,659.7
52.8102,624.2
52.8106,966.6
52.811,1170.3
52.8117,80.2
52.8216,47.4
52.8232,341.5
52.8394,125.2
52.8408,217.1
52.8475,145.2
52.8652,197.4
52.8759,189.9
52.9143,39.2
52.9336,57.9
52.9398,93.7
52.9505,15.7
52.9652,108.4
52.9791,113.9
52.9897,46
52.9917,56
53.0037,71.9
53.0164,79.2
53.0189,42.9
53.0674,57.9
53.068,669.4
53.073,108.9
53.0891,96.4
53.112,52.2
53.1377,224.9
53.1443,106.5
53.1587,39
53.1798,79.3
53.1852,114.6
53.1932,169.7
53.2227,138.3
53.2265,236.5
53.2297,46.3
53.2342,340.2
53.237,149.7
53.2497,189.3
53.2661,76.2
53.2756,704.5
53.2915,225
53.3105,83.4
53.3126,138.5
53.322,151.7
53.3518,99.2
53.3617,149.3
53.3653,67.7
53.3705,103.7
53.398,16.6
53.3992,140.2
53.4195,214.2
53.424,67.1
53.4377,197.5
53.4397,104.8
53.4661,54.3
53.4896,223.6
53.4977,583.6
53.5077,385
53.5136,127.7
53.5189,43.6
53.5199,230.1
53.5205,368.5
53.5211,99.5
53.5243,451.6
53.5435,56.2
53.5488,40.1
53.552,115.1
53.5751,47.3
53.58,43.4
53.5912,16.9
53.5947,17.3
53.5972,153
53.6035,789
53.6338,96.7
53.6461,98.5
53.6748,261
53.6811,124.8
53.6852,39.9
53.6861,178.8
53.6966,450.8
53.6986,118
53.7008,199
53.71,48.1
53.7134,80.5
53.7142,41.9
53.7288,604.4
53.7298,49.1
53.7304,97.6
53.7394,224.3
53.74,124.2
53.744,113.8
53.7494,126.3
53.7554,67.6
53.7585,165
53.7835,59.5
53.8002,300.3
53.8067,80.9
53.82,740
53.8206,137.9
53.8266,16.5
53.8311,86.8
53.8323,91.7
53.8332,52.2
53.8372,60.4
53.8573,200.4
53.8682,38.7
53.8821,195.4
53.8907,687.7
53.928,136.6
53.9432,73.8
53.9493,50.2
53.9557,668.3
53.9667,18.3
53.9729,201.7
53.9826,103.4
53.9924,43.1
53.9942,75.4
54.0127,66
54.0201,286.4
54.0394,541.9
54.0451,165.1
54.0472,634.4
54.056,180
54.0586,251.7
54.0719,82.9
54.0744,65.8
54.0806,70.6
54.0818,49.9
54.0856,70.9
54.0973,454.6
54.1168,206.6
54.1182,57.4
54.119,91.1
54.1211,47
54.1272,170.1
54.1457,640.9
54.1551,734
54.1606,186
54.1814,56.7
54.1905,200
54.201,95.7
54.204,100.7
54.2053,69.3
54.2106,583.1
54.2143,38.8
54.2463,130.3
54.2593,41.7
54.2597,38.8
54.2696,574.8
54.2762,18.5
54.2863,37.9
54.2911,142.2
54.2931,300.5
54.2959,291.6
54.3027,559.3
54.3222,324.6
54.3261,136.4
54.3262,140.9
54.3289,37.8
54.3417,65.5
54.3426,17.1
54.3442,78.9
54.3483,624.3
54.353,143.1
54.3565,86.3
54.3606,64.8
54.3639,50.2
54.3812,53
54.3891,57.6
54.426,36.3
54.4378,38.3
54.4449,232.2
54.4579,391.2
54.4634,42.9
54.4874,63
54.5038,639.5
54.5095,165.6
54.5128,37.6
54.5138,65
54.5262,207.8
54.5291,531.2
54.5498,688
54.5691,522.5
54.5703,59.6
54.5801,48.2
54.5869,98.5
54.6217,50.3
54.6403,158.3
54.6698,46.8
54.6777,49.5
54.6822,133.3
54.7155,237.9
54.7308,52.9
54.7738,210.5
54.7747,182.4
54.781,94.5
54.7827,149.9
54.7929,56.7
54.7961,300.6
54.7987,56.6
54.7992,527.1
54.8086,744
54.8237,446.6
54.8263,16.5
54.8556,39.4
54.8568,274.1
54.8614,39.6
54.8621,312.1
54.8667,296.8
54.8783,248.7
54.8858,42.1
54.8896,131.6
54.9026,386.6
54.9029,441.4
54.9126,57.3
54.9143,293.7
54.9308,47.7
54.9317,308.3
54.9451,77.1
54.9569,40.5
54.9703,18.3
54.972,572.2
54.9843,92.4
54.986,208.8
54.9921,61
55.0171,414.4
55.0229,58.9
55.0326,597.8
55.0363,16.9
55.0436,502.6
55.0463,585.4
55.0554,50.8
55.0609,138.4
55.081,80.8
55.084,285.5
55.0884,344.7
55.0959,382.7
55.0995,41.9
55.1182,290.2
55.1258,141.3
55.1328,172.3
55.1455,45.7
55.2044,206.5
55.2218,178.1
55.2424,87.1
55.2589,239.9
55.2639,674
55.2895,189.3
55.2937,593
55.3123,41.4
55.3195,696.6
55.33,658.4
55.3533,230.3
55.397,142.4
55.4069,48.1
55.4161,438.9
55.4399,633.1
55.4928,141.9
55.4958,36.6
55.5014,623.8
55.508,59.4
55.5331,53.8
55.5382,608.1
55.5386,60.3
55.5511,39.2
55.5684,43.7
55.6136,41.6
55.6209,242.8
55.6502,317.1
55.6509,69.7
55.6574,85.3
55.6626,737.9
55.6639,249
55.6646,106.7
55.6699,66.6
55.6939,40.4
55.6948,65.7
55.6965,191.3
55.7219,64.1
55.7293,379.7
55.734,139.2
55.7373,92.1
55.7377,230
55.7496,200.2
55.751,134.6
55.7641,75.5
55.7646,19.2
55.7979,284.5
55.8167,299.4
55.8397,224.5
55.8491,40.3
55.8887,73.4
55.8904,81.7
55.9008,190.7
55.9076,692.3
55.9119,46.3
55.929,96.6
55.9311,44.9
55.952,496.5
55.9597,47.5
55.9613,56.9
55.9689,338.3
55.9822,665
55.9871,194.9
55.9879,418.4
56.0011,288.7
56.0041,15.3
56.0096,191
56.0118,205.7
56.0364,21.1
56.0512,355.6
56.0689,40.1
56.0886,245.3
56.0899,435
56.0997,59.4
56.1086,133.4
56.1258,58.5
56.1551,270.2
56.1947,89.8
56.229,53.4
56.2298,80.1
56.2407,406.1
56.2548,41.4
56.2886,178.2
56.2922,69.2
56.2941,48.2
56.2975,109
56.2998,112.8
56.3105,119.7
56.3126,82.4
56.3316,63.2
56.337,48.7
56.3425,66
56.3464,81
56.349,290.4
56.3701,264.4
56.3803,74.8
56.4063,46.2
56.4124,307.6
56.4278,40.8
56.4491,36.2
56.4579,82.3
56.4634,275.7
56.4761,85.1
56.5044,256.7
56.5259,135.5
56.5459,19.9
56.5595,775.1
56.5706,37.6
56.5714,232.7
56.5796,291.8
56.5867,229.3
56.5879,125
56.5948,50.6
56.6176,44.6
56.6235,262.7
56.6276,39
56.6342,741.8
56.6656,64.6
56.6744,298.7
56.7311,240.9
56.7439,627.6
56.753,102.9
56.7567,50
56.7637,290.7
56.7698,42.9
56.7836,80.6
56.7858,42.7
56.7862,18.1
56.8063,43.5
56.8125,102.4
56.8251,232.8
56.8347,351.8
56.8441,72.1
56.8781,39.8
56.8911,69.7
56.8931,236
56.8999,66.8
56.9034,131.8
56.907,42.7
56.9277,124
56.9508,58.7
56.9518,82.7
56.9529,86.3
56.9581,538.9
56.9855,15.6
56.9918,40.4
56.9983,488.4
57.0026,149.1
57.0104,47.8
57.0284,123.9
57.0507,133.4
57.0546,109.5
57.101,76.5
57.1099,155
57.1175,89.9
57.1191,433.9
57.1431,287.8
57.1476,63.2
57.1554,131.6
57.1673,56.8
57.1843,49.7
57.1898,44.1
57.1975,75.8
57.2041,60
57.2364,39.8
57.278,45.1
57.2889,356.8
57.2972,134.6
57.2982,15.7
57.3168,308.6
57.3179,87.5
57.3247,49.4
57.3279,17.2
57.3293,48.4
57.3441,78.3
57.3507,135.5
57.364,62.7
57.3693,76.8
57.3818,83.9
57.3957,189.9
57.4083,73.9
57.4175,100
57.4189,66.3
57.4204,98.3
57.4231,86.5
57.4356,15
57.4403,221.6
57.4437,118.6
57.4539,823.3
57.4655,55.3
57.4782,399.5
57.4906,97.6
57.5069,208.6
57.5135,63.6
57.5483,61.5
57.5618,608.8
57.5669,16.4
57.5701,66
57.5731,45.8
57.5932,42.5
57.6036,154.4
57.6053,75.7
57.6325,154.8
57.6576,149.2
57.6949,538.3
57.7037,46.2
57.707,55.8
57.7091,86.4
57.7126,519.1
57.7168,92.7
57.7235,59.7
57.7321,299.6
57.7393,165.3
57.7732,45.1
57.7937,97.6
57.8021,48
57.8308,110.3
57.8349,230.8
57.8392,39.6
57.844,565.7
57.8536,42.8
57.8668,61.2
57.8682,45.9
57.8889,476.5
57.8916,42
57.9008,205.1
57.9129,191.7
57.918,384.5
57.9247,210.8
57.9261,42.1
57.9347,109.8
57.9401,80.4
57.9421,201.1
57.9437,41
57.9516,59
57.9562,387.8
57.9568,310.4
57.9677,106.9
57.9945,166.5
58.0058,147.1
58.0071,16.1
58.0253,44.8
58.0273,340
58.0295,55.4
58.0398,38
58.0454,59.4
58.0479,45.9
58.0668,660.3
58.0822,43.3
58.0838,58.3
58.0845,39
58.0988,112.8
58.103,243.4
58.1095,94
58.1228,301.3
58.1286,819.2
58.132,57.8
58.1468,773.6
58.1488,263.3
58.1715,241.2
58.1728,61.3
58.1887,52.9
58.1938,127.4
58.2135,141.2
58.2141,85.9
58.22,153.7
58.2251,579.2
58.2411,48.6
58.2474,84.9
58.2774,155.6
58.2837,632.5
58.2881,481.5
58.298,86.6
58.3082,46.7
58.3149,45.7
58.3157,954.8
58.3369,259.3
58.3451,299.6
58.3504,670.8
58.3605,256.8
58.3852,73.1
58.3881,40.1
58.3915,274.7
58.396,38.3
58.4025,43.6
58.4342,124.5
58.4354,19.5
58.4737,250.6
58.4748,237.1
58.4783,54.8
58.4926,41.3
58.5069,674.3
58.5073,377.4
58.5414,310
58.5433,62.1
58.5589,111.8
58.5767,216
58.6258,45.7
58.6374,133.7
58.6386,334.1
58.646,375.3
58.6579,64
58.6901,16
58.6961,682.5
58.7398,57.8
58.7402,40.8
58.7722,130.1
58.7844,125.1
58.7896,114.5
58.8293,39.6
58.8623,108.5
58.8743,136.2
58.8781,56.3
58.8868,162.1
58.8975,120.9
58.898,198.1
58.9048,234.7
58.9122,78.6
58.9185,44.7
58.9302,132.9
58.9571,42.1
58.9664,47.2
58.9837,169
58.9902,117.1
58.995,46.8
58.9981,369.9
58.9994,64.1
59.0021,572.7
59.0143,655.6
59.0281,146.6
59.0307,104.3
59.0319,57.1
59.0374,55.6
59.0486,145.6
59.0518,631.3
59.0544,254.1
59.0556,294.4
59.0592,107.3
59.1067,289.9
59.1125,159.7
59.1244,156.2
59.1329,45.8
59.137,165
59.1472,43.1
59.1551,594.1
59.1561,43.5
59.1736,42.8
59.1833,46.5
59.1953,293.8
59.2004,289.5
59.2079,43.4
59.2268,115.1
59.2384,130.7
59.2397,50.3
59.2463,85.4
59.2599,92.8
59.281,84.7
59.2851,657.2
59.2884,41.8
59.2989,831.6
59.2992,95.3
59.3016,43.6
59.3033,41.5
59.3137,133.1
59.3162,64.6
59.3202,18.2
59.3297,214.8
59.3325,353.9
59.3597,102.7
59.3611,205.1
59.3704,120.4
59.3759,106.7
59.4091,55.1
59.4166,41.8
59.4251,681.5
59.4349,62.2
59.4379,44.6
59.4434,616.9
59.4461,15.9
59.4524,40.2
59.4617,64.1
59.4631,80.6
59.476,692.6
59.4832,390.7
59.4843,817.4
59.499,284.5
59.5569,142.5
59.5588,138.1
59.5618,88.5
59.565,68.3
59.5756,93.1
59.6082,69.5
59.6235,74.8
59.6674,110.4
59.6721,80.4
59.6762,206.7
59.6847,166.1
59.6874,142.7
59.6938,64.5
59.7021,24
59.7205,582.9
59.7244,220.8
59.7272,61.3
59.7371,45.8
59.7404,197.7
59.7642,63
59.7734,118.2
59.7857,514.1
59.7999,118.4
59.8133,177.1
59.8142,466.1
59.8162,795.8
59.8411,262
59.8506,592
59.8721,56.8
59.8891,722.7
59.903,298.6
59.913,141.8
59.9313,38.9
59.9654,161.3
59.9822,414.7
59.9827,426.7
59.9849,454.4
59.9989,44.5
60.0085,337.5
60.0148,43.3
60.0185,19.5
60.0229,74
60.0298,93.9
60.0541,183.8
60.0562,67.1
60.0571,293.7
60.0579,156
60.0648,41.3
60.0799,78.9
60.0829,156.8
60.0871,47.3
60.107,673.3
60.1109,230.8
60.1588,125.2
60.1739,626.6
60.1816,677.1
60.2058,88.8
60.2078,126.6
60.2272,216
60.2279,614.8
60.2299,286.9
60.2381,326.1
60.2621,172.4
60.2678,191.5
60.2708,328.2
60.2802,619
60.2913,98.8
60.2929,120
60.3084,129.9
60.3174,445.2
60.3204,17.7
60.3248,496.9
60.3259,544.8
60.333,247.3
60.3458,83
60.3498,271
60.3713,228.4
60.3735,650.5
60.377,41.1
60.3891,134
60.3928,58.5
60.3958,91.2
60.398,180.3
60.4151,41.8
60.4164,80
60.4288,50.5
60.4308,365.2
60.4386,85.6
60.44,66.8
60.4413,56
60.444,302.3
60.4447,188.9
60.4616,201
60.4661,48.1
60.4772,707.1
60.4884,63.6
60.5051,200
60.5277,305.3
60.5293,617.7
60.5319,195.9
60.545,246.6
60.5535,148
60.5663,219.3
60.5722,39
60.5776,43.1
60.616,49.5
60.6171,41.7
60.6233,52.5
60.6326,14.7
60.6381,192.5
60.6504,993.8
60.6929,48.8
60.6985,149.8
60.7176,68
60.7263,63.9
60.7461,68.2
60.7787,96.3
60.7836,57.1
60.7883,15.8
60.8026,88
60.8057,55.9
60.8061,131.5
60.8272,463.8
60.8297,77.9
60.8508,164.5
60.8599,396.4
60.8609,578.4
60.8848,217.4
60.9095,767.2
60.9231,85.9
60.9248,452.2
60.9349,125.5
60.9565,59.4
60.9614,60.6
60.9618,76.3
60.962,62
60.9674,280.6
60.9692,46
60.9712,58.1
60.9786,108.2
61.0028,41.4
61.0112,46.7
61.0476,343.7
61.0494,49.4
61.0808,153.7
61.093,145.3
61.102,569.5
61.1148,252.2
61.1165,36.8
61.1342,333.1
61.1478,42.4
61.1705,78.3
61.1817,46.2
61.2089,17.1
61.2321,60.2
61.2734,666.1
61.2761,256.5
61.2779,656
61.2907,112.1
61.2911,719.9
61.293,379.4
61.3002,140.8
61.3072,479.4
61.319,131.2
61.3219,91.6
61.326,43.3
61.3317,48.5
61.3358,708
61.3435,70.8
61.3901,49.5
61.392,89.5
61.4007,42.1
61.406,159.5
61.4491,42.2
61.4502,15.9
61.4515,65.3
61.4566,61.8
61.4686,79.1
61.4765,59.1
61.4846,54.4
61.4974,51.8
61.5019,184.6
61.5149,191.2
61.5392,171.5
61.5484,16.5
61.5561,274.9
61.5567,299.1
61.5586,75
61.5765,42.5
61.5942,330.7
61.605,56.3
61.6062,65.1
61.6186,444.6
61.6273,52.6
61.6314,167.2
61.6384,79
61.6432,19.3
61.6589,16.8
61.7009,45.2
61.7014,173
61.7078,85.3
61.7088,63.1
61.7199,20.3
61.7601,44.3
61.7652,139.8
61.7663,240.5
61.7742,180.3
61.7773,45.8
61.78,102.3
61.7872,62.9
61.791,691
61.7974,97.6
61.8039,370.4
61.8124,51.3
61.8546,53.8
61.8833,209.6
61.8873,157.4
61.8884,252.8
61.8903,276.9
61.918,83.3
61.9254,623.5
61.9314,69.9
61.9318,42.5
61.9325,272.9
61.9372,342.5
61.9424,258.4
61.9426,246.3
61.9446,238.4
61.9664,334.8
61.9855,67.7
62.0031,187.4
62.0166,53.5
62.0277,46.5
62.0458,570.6
62.056,350.5
62.0654,60.1
62.0887,42.2
62.0965,1001.6
62.1096,1194.7
62.1273,67.9
62.1387,584.4
62.143,141.5
62.1513,646
62.1559,596.4
62.1628,105.6
62.1677,497.1
62.177,740.6
62.2071,274.2
62.221,48.5
62.2231,297.4
62.2305,17.7
62.2643,103.4
62.2651,222.6
62.2895,56.3
62.29,341.2
62.3072,15.6
62.3251,144.8
62.3392,56.8
62.343,143.3
62.3548,667.9
62.3565,131.9
62.3613,271.6
62.3617,76.1
62.3718,146
62.3799,72.6
62.3814,268.8
62.3841,242
62.3847,56
62.3858,331
62.3878,300.8
62.3987,17.6
62.4439,43.2
62.4564,45.3
62.4724,416.4
62.4733,599.9
62.4873,783.9
62.4994,574
62.5363,48.5
62.5376,71.2
62.5386,217.7
62.5515,683.2
62.5702,52.3
62.5964,156.5
62.6053,330.9
62.6073,71.9
62.6083,167.4
62.6139,493.5
62.6386,70.1
62.6575,434.3
62.6689,581.1
62.6856,185.5
62.6915,146.5
62.7,47.3
62.7262,42.3
62.7307,53.1
62.7647,59.4
62.7702,39.3
62.7831,48.4
62.7842,152
62.7858,109.9
62.7901,87.8
62.8057,17.1
62.8198,51
62.8249,41
62.8297,78.5
62.8432,60.3
62.8642,74.4
62.8844,95
62.8958,660.7
62.8969,152
62.9053,358.8
62.9179,60.1
62.9288,236.2
62.9321,348.9
62.944,100.2
62.9497,20.4
62.9594,703.6
62.9997,665.5
63.0156,48.6
63.0389,80.1
63.0477,85.6
63.0585,346.6
63.0793,97.5
63.0815,308.2
63.1152,260.2
63.1241,102
63.1312,20.5
63.1344,47.3
63.1413,746
63.1503,79
63.1782,152.2
63.2,435.8
63.2088,76.4
63.2487,57.7
63.264,79.8
63.2787,944.6
63.3056,43
63.3121,52.3
63.3278,73.8
63.3874,133.4
63.3933,45.2
63.3992,101.4
63.4114,89.2
63.4463,69
63.4648,175.1
63.4711,126.8
63.4739,317
63.4776,54.1
63.4787,97.2
63.4995,429.6
63.519,40.4
63.5235,82.2
63.5255,159.1
63.5278,43.2
63.5295,177.5
63.5453,327
63.5794,56.5
63.5887,326.9
63.6104,112
63.6147,226.9
63.6302,103.1
63.6377,17.7
63.6561,255.1
63.6618,73.5
63.6658,204.7
63.6726,298.6
63.6752,64.6
63.676,362.3
63.7234,74.1
63.7327,458
63.7389,72.1
63.7494,40.7
63.77,99
63.7912,239.7
63.8075,232.1
63.8193,96
63.838,74.4
63.8428,107.6
63.8452,385.6
63.8573,17.2
63.8704,51.1
63.877,87.4
63.8821,157.9
63.8921,344.9
63.8932,51.5
63.9097,318.9
63.9533,62.7
63.9569,334.3
63.9655,85.8
63.9662,43.8
63.9803,428.6
64.0093,45.5
64.0195,218.5
64.0305,633
64.0393,74.1
64.0504,50.3
64.0515,78.8
64.0772,63
64.0805,409.2
64.0832,319.2
64.0925,145.3
64.0968,109.5
64.1207,141.6
64.1321,68.2
64.1407,69.4
64.1475,40.3
64.1544,112.4
64.1635,89.2
64.2083,766.4
64.2162,662.7
64.2342,62.7
64.2376,20.6
64.2432,126.5
64.2671,80.9
64.272,137.1
64.276,41.8
64.2781,596.1
64.2805,190.4
64.2884,122.9
64.2944,136.7
64.2977,108.7
64.312,95.2
64.3219,153.9
64.3356,543
64.3408,133.4
64.3558,267.7
64.3681,171.9
64.3822,158.3
64.3933,61.8
64.3954,41.8
64.401,265.5
64.4202,723
64.4237,530.7
64.432,629.5
64.4338,48.4
64.4536,67
64.4594,489.2
64.4614,85.8
64.4649,381.7
64.4715,61.2
64.4767,631.8
64.4991,44.6
64.4996,96.8
64.5084,229.2
64.509,252.1
64.549,56.7
64.5525,114.5
64.5637,23.6
64.5664,54.8
64.5776,94.2
64.5822,16.4
64.5874,152.6
64.5896,42.3
64.5955,752
64.6178,124.5
64.6208,117
64.6489,51.1
64.6558,108.7
64.6571,261.5
64.722,106.7
64.731,65.8
64.7328,69.7
64.7405,100.9
64.7461,615.5
64.7525,780
64.774,216.3
64.7939,221.9
64.7981,362.1
64.8137,419.8
64.8231,109
64.8293,61.2
64.87,209.1
64.8729,169.4
64.8765,43.2
64.9117,40.4
64.93,141
64.9333,68.2
64.9357,224.1
64.9423,482
64.9481,60.2
64.9551,618.8
64.9698,17.6
64.9769,150.4
64.9775,14.5
64.9776,14.4
64.9877,162.5
64.9899,111
64.9914,150.2
64.9986,41.7
65.0034,434.3
65.007,237
65.0086,253.5
65.0189,55.2
65.0312,76.8
65.0448,757.8
65.0738,260.8
65.0754,55.1
65.0891,65.2
65.0958,206.7
65.1007,86.5
65.1016,593.8
65.1152,45.2
65.1181,43.7
65.1402,54.7
65.1762,111.2
65.1812,215.8
65.1941,739
65.2085,39.8
65.2301,666.7
65.244,233.7
65.2533,15.7
65.2651,423.4
65.2695,56.8
65.3059,56.2
65.3088,95.1
65.3157,239.9
65.3237,205.4
65.3285,104
65.3464,51.2
65.3568,134.5
65.3748,268.9
65.3762,42.8
65.378,203.7
65.3797,50
65.4115,531.7
65.4569,49.6
65.474,41
65.483,672.2
65.4952,67.7
65.514,120
65.5272,319.4
65.529,193.5
65.533,317
65.5579,17.9
65.5645,261.1
65.5671,45.4
65.5715,15.7
65.5821,124.6
65.5851,297
65.594,40.5
65.6053,75
65.6178,84.2
65.6233,85.3
65.6241,275.9
65.6246,512.5
65.634,218.4
65.6441,473.2
65.6549,121.1
65.6738,57.4
65.6778,101
65.6812,147
65.7031,121.2
65.7102,668.4
65.7241,93
65.7264,49
65.7383,601
65.7502,624.2
65.7694,83.5
65.7745,38.6
65.7895,290
65.804,71
65.808,222.9
65.8256,503.5
65.827,100.5
65.8279,71.7
65.8416,271.6
65.8423,159.1
65.8687,74.4
65.8719,713.3
65.8763,129.6
65.8913,730.1
65.9005,381.1
65.9247,43
65.951,189.7
65.9588,45
65.973,118.4
65.9843,824.5
65.9926,127
66,320.3
66.0046,53.4
66.0112,75.9
66.0291,134.3
66.0384,748.1
66.0392,35.7
66.0398,39.6
66.0419,109.2
66.046,650.8
66.0538,606.7
66.063,213.3
66.0668,624.9
66.091,76.6
66.1213,165.6
66.1383,297.4
66.1401,324.5
66.1438,221.4
66.1522,795.9
66.1899,58.5
66.1914,130.2
66.2039,311.8
66.2047,143.2
66.208,47.5
66.2259,58.4
66.2281,47.2
66.2341,39.5
66.243,127
66.2751,131.7
66.2816,949.1
66.2959,42.6
66.3022,16.3
66.3153,653.9
66.3197,218.6
66.327,75.3
66.348,61.9
66.3669,157.3
66.3715,848.5
66.3817,140.5
66.4086,92.3
66.4164,200.2
66.4338,47.6
66.4416,182.5
66.4448,101.5
66.5008,260.3
66.5095,119.3
66.5394,75.1
66.5498,81.9
66.5503,190.4
66.5597,61.5
66.5728,91.5
66.5757,69.9
66.6167,179.9
66.6253,94.2
66.6258,83.2
66.6459,412.6
66.6638,48.2
66.6709,129.7
66.6824,41.1
66.6925,373.5
66.6942,179.9
66.7043,148.6
66.7319,127.7
66.7352,43.4
66.737,622.5
66.7501,62.7
66.7545,188.5
66.8272,16.9
66.8296,115.6
66.8543,74.5
66.8692,66.3
66.8738,584.4
66.8828,106.3
66.8844,43.1
66.9067,134.9
66.9088,434.6
66.9384,167.8
66.9408,140.9
66.9786,16.4
66.9879,42.7
66.9961,94.5
67.0068,221
67.0346,159.9
67.0383,97.2
67.0433,39.8
67.0502,90
67.0539,82
67.0577,232.3
67.0632,123.9
67.0698,643.5
67.0716,78.4
67.0992,48.8
67.1039,185
67.1145,50
67.1222,15.6
67.1465,82.3
67.1477,63.5
67.1507,601.7
67.1516,163.7
67.1548,15.6
67.1624,623.7
67.1682,621.4
67.1707,176.4
67.1791,101.4
67.1923,331.6
67.1959,41.3
67.219,90.5
67.2276,201.9
67.2484,89.8
67.2493,102.2
67.2673,47.3
67.2694,64
67.289,476.1
67.3522,55.7
67.3692,728.9
67.3736,268.3
67.3818,49
67.3935,370.2
67.4143,443.9
67.4493,39.7
67.461,722.7
67.4676,204.2
67.489,460
67.5269,228.7
67.5293,280.6
67.5432,123.6
67.5479,113.2
67.5574,207.9
67.5575,206.1
67.5706,53.1
67.5872,226.6
67.5986,100
67.6028,669.2
67.6154,223.3
67.6402,19
67.6494,236.9
67.6587,602.8
67.6725,118.3
67.7151,140.4
67.7267,272.3
67.7573,150.9
67.7611,114.6
67.7641,256.3
67.7717,23.6
67.7725,48.5
67.7824,224.7
67.7928,90.6
67.8096,45.6
67.8242,167.2
67.8354,41.3
67.9038,430.3
67.9207,45
67.9576,91.6
67.9664,300.5
67.9693,627.7
67.9749,64.6
67.978,184
67.9967,139
68.014,160.1
68.0622,54.1
68.0816,19.7
68.0872,319.2
68.1016,42.3
68.1302,408.2
68.1349,136.6
68.1404,72.5
68.1547,720.4
68.1566,324.4
68.225,628.2
68.2421,91.2
68.2624,262.4
68.2712,40.2
68.2752,639.8
68.2933,95
68.3009,143.5
68.3406,107.9
68.3448,298.7
68.368,92.1
68.3899,44.4
68.4014,107.8
68.4071,134.6
68.415,113.8
68.4214,287.1
68.4291,139.7
68.4378,98.7
68.4381,189
68.4407,59.5
68.4636,514.3
68.4861,686.8
68.4869,339.8
68.512,321.3
68.5472,255.5
68.559,18.1
68.5866,107.8
68.6004,53
68.61,144.4
68.6147,88.6
68.6238,46.1
68.6367,41
68.6492,276.5
68.6597,139
68.7127,390.9
68.7293,119.1
68.7365,76.6
68.74,44.9
68.742,135.9
68.7506,67.4
68.7666,78.4
68.7763,375.4
68.7998,157.7
68.8056,626.4
68.8142,51.5
68.8404,41.7
68.8503,345.8
68.8598,140.8
68.8943,42.5
68.8959,223.9
68.9075,57.6
68.9104,66.1
68.9555,820.3
68.9787,38
68.9839,303.9
68.987,44.6
68.9876,82.3
69.03,61.1
69.0716,271
69.0936,126.2
69.1119,38
69.1292,78
69.131,521.7
69.1619,575.2
69.1664,203.2
69.1692,210.8
69.1741,39.7
69.1885,416.1
69.1908,88.2
69.228,362.5
69.2433,124.8
69.2479,53.3
69.2529,140.4
69.3161,73.3
69.3184,123.8
69.3264,314.4
69.3493,172.1
69.3605,40.5
69.3885,389.7
69.3926,76.6
69.3959,113.9
69.4035,294.1
69.4046,40.7
69.4107,54.5
69.4189,281.2
69.4266,121.9
69.4673,646.6
69.4714,338.3
69.4795,78.1
69.4805,22.4
69.4899,292.5
69.505,90.2
69.5114,150.6
69.513,71.8
69.524,54.3
69.5334,21
69.5618,60.8
69.565,18.3
69.5732,47.2
69.5793,40.8
69.5966,42.9
69.6002,74
69.6102,207.5
69.6466,46.2
69.6917,358.1
69.7013,95.1
69.7027,632.9
69.7049,196.1
69.715,92.9
69.7213,51.8
69.7323,270.1
69.7785,73
69.7802,285.7
69.7851,196.4
69.8019,947
69.8089,39.7
69.81,746.3
69.8128,501.9
69.8221,58.2
69.8372,243.2
69.8713,17.4
69.8756,55.2
69.8846,88
69.9176,270.6
69.9276,172.8
69.9334,383.7
69.9479,84.8
69.9504,175.6
69.9533,92.5
69.9558,272.6
70.0179,62.1
70.0309,45.9
70.0343,82.9
70.0648,1169.8
70.0858,722.8
70.1053,182.5
70.1221,183
70.1292,37.9
70.137,237.9
70.1491,394.3
70.1707,37.9
70.1802,173.2
70.1816,66.3
70.1964,624.6
70.2313,52.5
70.251,410.4
70.253,352.7
70.268,41.2
70.2797,55.2
70.2845,87.8
70.2989,133.3
70.3349,49.3
70.3376,204.2
70.3559,273.8
70.3839,342.7
70.389,174.9
70.4004,199.5
70.4054,65.1
70.4201,280.4
70.4226,63.3
70.4348,69.4
70.4355,43.1
70.437,517.8
70.4387,225.7
70.4533,361.2
70.4602,67.8
70.5025,94.4
70.535,43.3
70.5455,70.1
70.547,119.6
70.5589,302.9
70.5753,138.4
70.6099,72.5
70.6133,108.8
70.6437,360.6
70.6504,181.6
70.6562,155
70.6578,400.7
70.6777,230.3
70.6959,217.7
70.7174,15.9
70.7292,50.1
70.7339,52.8
70.755,62.1
70.8504,39.7
70.8807,112.4
70.8815,179.1
70.8892,627.7
70.9121,141.1
70.9146,90.9
70.9195,56.7
70.9228,255.3
70.9736,58.1
70.9957,109.9
71.008,68
71.0372,356.5
71.0458,107.5
71.0495,368.4
71.0538,145.8
71.0778,87
71.0939,172.3
71.0986,71
71.1139,171.3
71.1212,41.7
71.1251,46.6
71.1342,40.1
71.1359,18.7
71.1478,37.9
71.1516,47.8
71.1788,112.3
71.2166,172
71.2171,110.3
71.2408,126.9
71.2465,85.9
71.2672,89
71.3212,92.7
71.324,131.5
71.3253,488.6
71.3484,266.5
71.377,815.7
71.38,215.3
71.3906,58
71.3978,44.8
71.3997,76.5
71.4074,46.4
71.4283,206.2
71.4354,260.7
71.4409,274.8
71.4425,48.1
71.4587,43.8
71.4638,299.8
71.4707,39.3
71.481,308.8
71.4986,191.3
71.5069,74.8
71.5146,898.8
71.5205,108
71.5375,17.3
71.5397,165.1
71.5405,311.1
71.5623,43.9
71.5633,263.8
71.5691,778.9
71.5734,45.2
71.5767,203
71.5791,109.9
71.5867,157.5
71.59,40
71.6171,355.2
71.6203,50.5
71.639,185.5
71.6457,175.8
71.6476,54.6
71.65,130.7
71.6507,133.1
71.6541,17.4
71.6552,86.1
71.6675,40.7
71.674,92.5
71.6878,123.2
71.7084,163.9
71.7182,330
71.7282,248
71.7446,42.3
71.7463,212.2
71.7673,57.3
71.8037,146.8
71.8181,262.9
71.8263,66.7
71.8287,47.7
71.8357,313.8
71.8425,163.3
71.8603,59.1
71.8661,309.2
71.8838,692.1
71.8887,143.3
71.9067,46.8
71.9292,247.3
71.9395,81.3
71.9402,624.1
71.9507,99.1
71.9528,150.1
71.9633,582.4
71.9715,672.7
71.9759,95.6
71.9805,40.6
71.9866,67
71.9965,246.2
72.0237,15.9
72.0265,39.5
72.0368,208.8
72.0441,119
72.0804,433.5
72.0886,88.3
72.0968,108.1
72.1035,77.3
72.1068,333.3
72.1174,121.8
72.1186,25.2
72.122,333.7
72.1297,40.1
72.1349,137.9
72.1379,16.4
72.1442,1030.7
72.1751,253
72.1825,38.9
72.1863,265.7
72.1951,83.6
72.2009,780.6
72.2287,64.7
72.2301,945.5
72.2307,67.6
72.2316,369.2
72.2323,158.9
72.2332,115.2
72.2337,201.8
72.2345,375.6
72.2355,828.3
72.2366,609
72.2372,187.4
72.2386,1001.3
72.2397,883.6
72.2408,1225.5
72.2415,1579.8
72.2422,3579
72.2428,3277.3
72.2432,1839.5
72.2441,1915.9
72.2448,1591.7
72.2466,2360.8
72.2476,4155.5
72.2489,2595.1
72.2499,1131.2
72.2504,1140.6
72.252,4023.3
72.2542,1749.6
72.2554,696.2
72.2561,816.4
72.2572,1082.5
72.2591,607.2
72.2648,59.6
72.2794,85.5
72.2883,732.1
72.2889,238.6
72.2903,53.7
72.2969,42.2
72.3124,239.1
72.3164,90.5
72.3318,16.8
72.3356,239.6
72.3396,552.4
72.3437,71.9
72.3814,155.1
72.3876,91.3
72.3896,64.7
72.3981,76.7
72.4129,283.4
72.4394,46.7
72.4469,43.8
72.5225,55.7
72.5231,147.6
72.5421,65.8
72.5475,106.1
72.5588,175.7
72.5612,38.2
72.567,59.3
72.5764,449.4
72.5991,718.3
72.6002,79.3
72.6109,17.2
72.6119,60.8
72.625,125.5
72.647,79.3
72.6519,78.9
72.6778,51.5
72.7371,144.6
72.7574,616.5
72.761,17.6
72.771,835.7
72.7945,110.3
72.812,69.6
72.8237,200.7
72.8254,17.8
72.831,274.9
72.8486,44.8
72.8537,349.8
72.8541,112
72.8557,87.1
72.8563,117.6
72.871,44.5
72.8726,70.9
72.8891,169.6
72.892,301.2
72.9199,86.3
72.9361,24.7
72.9368,114.6
72.9546,181.5
72.9636,798.8
72.966,785.1
72.9779,286.3
72.9887,742.2
72.9903,17.3
72.998,39.2
73.0012,67.9
73.0147,651.6
73.0236,60
73.0277,266.3
73.0361,148.9
73.0543,689.8
73.0568,17
73.0615,366.5
73.0651,255
73.1053,296.9
73.119,64.8
73.1329,239
73.1569,17.2
73.1811,134.2
73.1878,21.1
73.2091,600.5
73.2146,38.6
73.2252,54.7
73.2418,66.6
73.2434,298.5
73.2522,137.1
73.2541,42.9
73.2639,42.9
73.2651,249.1
73.2774,156.1
73.2891,47.1
73.2977,94.9
73.3107,645.3
73.3141,275.3
73.3309,43.6
73.3497,44.5
73.3585,84.6
73.3682,446.2
73.3931,222.8
73.4066,490.5
73.4162,51.7
73.4326,711.4
73.4643,45.9
73.4704,376.3
73.4857,413.1
73.4951,196.6
73.4988,391.9
73.5131,196.5
73.5225,280
73.5307,469.7
73.5399,44.4
73.5468,437.6
73.5565,111.5
73.5613,483.1
73.5632,47
73.59,611.7
73.5909,17.3
73.5945,215.8
73.597,549.6
73.6009,872.8
73.6019,233.2
73.6204,70.5
73.6221,720.1
73.6483,653.5
73.6651,131.8
73.6772,405.8
73.6856,53.6
73.7123,156.8
73.7152,48.6
73.7178,80.4
73.7307,221.2
73.7354,183.1
73.7437,474.6
73.7832,49.2
73.836,101.2
73.8423,95.7
73.8548,70.6
73.8675,609.7
73.8709,44.2
73.8814,67.5
73.8828,64.6
73.8953,322.5
73.9066,41.7
73.9144,377.5
73.9186,514.6
73.9595,357.6
73.9711,363.9
73.9781,78.1
74.002,317.5
74.0103,300
74.052,586
74.0597,3318
74.0717,106.9
74.0761,172.6
74.0773,606.8
74.0958,205.6
74.1123,55
74.1181,64.2
74.1303,296.8
74.1325,207.6
74.1347,146.5
74.1358,88.3
74.1364,451.8
74.1478,693
74.1511,204.9
74.1923,59.6
74.2137,61.8
74.2256,49.5
74.2395,574.9
74.2555,124.5
74.2636,126
74.2756,579.3
74.2862,604.4
74.2973,464.9
74.3198,693.6
74.3433,433.5
74.3707,39.3
74.3781,293.9
74.4111,63
74.4185,626.8
74.4215,87.5
74.4711,55.3
74.4721,122.6
74.473,64.7
74.4758,350.7
74.5066,48.4
74.5149,498.1
74.5194,222.5
74.5604,59.8
74.5978,224.3
74.6056,636.1
74.6087,18.1
74.6297,132.6
74.6583,190
74.6627,18.2
74.6802,83.4
74.6942,133.2
74.7183,44.1
74.7226,76.1
74.7423,19.2
74.7556,46.4
74.7697,218.7
74.78,46.4
74.782,261.1
74.7942,41.1
74.797,96.4
74.7987,152.2
74.8078,345.5
74.8547,718.7
74.8685,39.6
74.9186,187.7
74.9269,137
74.9339,361.9
74.9398,1037.5
74.9797,46
74.9847,132.1
74.994,722.2
75.0162,329.1
75.017,67.7
75.019,83.5
75.0208,156.6
75.0307,15.9
75.0473,443.5
75.0561,60.5
75.0937,342
75.1255,80.5
75.1345,309.8
75.1408,233.9
75.1581,61.8
75.1654,40.8
75.1687,395.6
75.171,761.9
75.1744,173.2
75.1813,109.3
75.1961,113
75.1994,61.5
75.2066,54.1
75.2162,65.1
75.229,658.6
75.2321,75.4
75.2329,108.9
75.2425,169.2
75.2455,57.5
75.2491,185.4
75.2693,412.4
75.2754,186.7
75.2965,18
75.312,277.3
75.3379,67.5
75.3419,49.1
75.3468,66.4
75.3563,481.3
75.3592,279.2
75.3655,669.6
75.3733,88.2
75.3842,17.9
75.4189,70.6
75.4215,133.5
75.4372,674.8
75.4401,16.2
75.4451,236.5
75.4463,86.6
75.4474,44.2
75.5149,61.2
75.5176,76.7
75.5262,652.6
75.5346,67.8
75.545,70.6
75.5749,46.9
75.5959,350.7
75.5997,336.2
75.6318,191.9
75.6498,141
75.6568,194.5
75.6674,43.3
75.6721,86.2
75.6732,114
75.6822,59
75.6944,75.2
75.697,77
75.7118,128.6
75.7432,18
75.7608,230.3
75.7719,251.2
75.808,18.6
75.8181,311.8
75.9016,299.9
75.9486,391.9
75.9707,307.5
75.98,218.2
75.9892,309.6
76.0257,196.3
76.0418,197.6
76.0514,225.2
76.0525,548.2
76.072,48
76.0897,101
76.1394,17.6
76.1407,67.3
76.1502,44.8
76.1682,40.9
76.1813,59.1
76.1818,19.3
76.1867,91.1
76.1906,153.6
76.2124,61.5
76.2177,173.7
76.2263,64.9
76.2328,220.7
76.2465,164.5
76.2915,637.2
76.2971,19.3
76.3089,131.4
76.3245,72.8
76.3414,43.6
76.3518,54.6
76.3585,300.5
76.3639,308
76.3783,641.8
76.4001,281.5
76.414,77.4
76.4681,554.3
76.5397,226.3
76.5464,774.8
76.5478,793.2
76.5579,80.4
76.5808,94.6
76.598,56.1
76.6374,49.2
76.6555,59.3
76.6571,756.3
76.7345,21
76.7363,83.4
76.738,756.9
76.7552,103.7
76.762,338.1
76.791,761.7
76.7979,224.5
76.7993,135.8
76.8263,132.7
76.8989,227.3
76.9234,377.2
76.9241,16.7
76.9435,341.6
76.9449,55.8
76.9945,712.4
77.0329,20
77.0353,108.7
77.0383,124081
77.0481,42.7
77.0656,81.7
77.1169,48
77.1788,59.8
77.2002,417
77.2169,84.5
77.2622,46.6
77.3207,52.6
77.3492,17.4
77.3553,86.5
77.3746,121.5
77.3966,231.6
77.4132,53.2
77.4172,56
77.4238,356.2
77.424,304.1
77.433,50.7
77.4382,486.4
77.492,75.3
77.5122,42.4
77.5158,58.6
77.5314,294.3
77.5327,145.5
77.551,150.2
77.5645,86.7
77.5687,294.3
77.5727,154.5
77.5808,136.9
77.5989,274.1
77.6146,64.3
77.6458,686
77.6581,761.5
77.6728,59.8
77.6984,195.5
77.7052,62.2
77.7121,138.7
77.73,18.2
77.7586,133.9
77.7839,53.3
77.7874,75.6
77.7907,172.9
77.8311,15.6
77.8747,39.2
77.9796,163
77.9972,76.9
78.0417,3824.4
78.055,49.3
78.0604,159.5
78.0607,171.7
78.0757,192.5
78.1149,233.8
78.1374,91.6
78.1511,37.8
78.1846,132.9
78.2152,91.8
78.2192,56.2
78.229,50.9
78.2345,349.1
78.2427,17.4
78.249,48.8
78.2513,55
78.256,668
78.2621,65.6
78.2686,91.1
78.3187,134.7
78.3257,171.4
78.3604,79.9
78.3623,534.6
78.3786,49.1
78.3816,520.1
78.3825,182
78.3856,40.7
78.3862,140.1
78.4069,132.3
78.4159,539.3
78.4227,57.6
78.429,107.2
78.4639,356
78.4706,55.1
78.5338,450.6
78.5539,103.5
78.5838,43.3
78.5903,117
78.5917,41.8
78.6114,17.4
78.6273,50.8
78.6422,136.7
78.6541,41.8
78.6658,255.8
78.6845,19.1
78.7232,16.3
78.7254,67
78.7431,16.5
78.7577,116
78.7742,388.3
78.7768,43
78.7847,174.6
78.7936,99.6
78.8104,82.9
78.8172,298.6
78.8681,162
78.8934,44.6
78.9027,232.2
78.9105,648.8
78.9138,149.1
78.9185,49.7
78.9242,130
78.9317,85.9
78.9511,50.3
78.9678,42.9
78.9704,91.8
78.99,885.6
78.9968,69.7
79.0285,80.2
79.0298,64.1
79.0498,757
79.052,46.6
79.054,6768.4
79.0611,86.5
79.0645,265
79.0858,340.3
79.1149,365.5
79.1346,767.3
79.1519,46.2
79.1954,146.1
79.2079,197.9
79.216,86.3
79.2331,74.1
79.2425,76
79.2552,465.7
79.2748,236
79.2936,496.3
79.301,83.3
79.3545,23.2
79.3589,137.2
79.3624,69.5
79.3712,51.2
79.3992,681.1
79.4232,386
79.4332,97.3
79.438,266.9
79.4764,161.4
79.5216,756.7
79.575,132
79.582,83.2
79.592,164.6
79.5979,709.2
79.6015,41.9
79.6018,51.7
79.602,48.3
79.6069,35.9
79.6405,732
79.6451,285.4
79.6836,161.8
79.6945,135.7
79.7234,815.1
79.7334,43.9
79.7704,54.7
79.7708,52.7
79.771,52.5
79.791,218.4
79.8011,60.4
79.8051,117.7
79.8161,190.9
79.8237,18.4
79.8255,382
79.8407,162.5
79.8477,96.7
79.8743,70.4
79.8833,138.1
79.8936,65
79.9076,147.8
79.9216,599
79.935,884.6
79.9459,17.1
79.9545,46
79.9623,44.5
79.9798,33.7
79.995,727.8
80.0193,93.6
80.0238,716.1
80.0421,242.5
80.1366,641.9
80.1652,134.2
80.1733,16.4
80.1847,134.7
80.2089,16.4
80.2098,272.1
80.2206,65.3
80.2428,74.4
80.2493,55.9
80.2596,45.3
80.273,17.3
80.285,70.1
80.2965,728.4
80.3349,651.6
80.3391,53.8
80.3424,508.6
80.3494,41.4
80.3554,47.9
80.3804,335.2
80.3859,360.3
80.3941,135.7
80.4321,820.3
80.4345,81.3
80.4356,50.8
80.4394,87.2
80.449,659.5
80.4539,128.5
80.4805,21
80.4962,367.3
80.5188,55.6
80.5225,48.1
80.5406,443.7
80.549,72.2
80.5532,42.9
80.5608,99.2
80.5701,18
80.5767,19
80.5944,729.9
80.6215,63.9
80.6322,851.9
80.6327,652
80.6362,593.4
80.6495,80.4
80.6802,71
80.6916,667.5
80.7219,697.7
80.7241,119.6
80.7599,20.1
80.8023,68.6
80.8045,353
80.8047,348
80.8603,115.9
80.8946,510.7
80.9125,230.9
80.9226,235
80.9301,110.5
80.9442,236.9
80.9476,34273.7
80.9581,478.1
80.9752,45.2
80.9761,51.4
81.002,163.4
81.0158,83.9
81.0248,813.2
81.0298,333.5
81.0696,3591
81.0991,18.3
81.1397,46.9
81.1505,436.9
81.152,874.8
81.1527,1267.8
81.1538,483.6
81.1552,369.9
81.1561,96.7
81.1568,191.2
81.1586,88.4
81.161,46
81.1806,612.4
81.2372,19.2
81.2638,592.1
81.2857,44.8
81.2915,91.9
81.2935,113.7
81.2987,73.4
81.3025,422.7
81.3291,39.9
81.3577,74.3
81.3636,86.6
81.3817,74.6
81.391,15.6
81.3946,369.5
81.3962,162.6
81.4055,207.1
81.4335,235.7
81.5044,54.3
81.5242,57.3
81.5332,87.8
81.5362,68.9
81.5494,43.6
81.5563,72.9
81.5669,772
81.57,91.9
81.5866,287.8
81.6394,88.1
81.659,78.1
81.6967,65.4
81.699,395.7
81.7041,127.8
81.7193,331
81.7301,100.4
81.7348,125.3
81.7377,625.6
81.7421,102.3
81.7483,107.3
81.7551,132.5
81.7618,99.2
81.7747,526.3
81.7851,305.4
81.7879,328
81.7984,115.4
81.8013,192.1
81.8389,41.7
81.8624,186.8
81.8661,489.8
81.8862,121.6
81.893,68.7
81.8999,828.3
81.9138,885.9
81.9165,63.3
81.9232,141.5
81.9235,164.7
81.9238,141.5
81.9299,18.6
81.9634,80.5
81.9914,663.3
81.9967,192.5
82,758.4
82.0124,126.4
82.0667,773
82.077,187.3
82.0839,337
82.0989,89.6
82.1211,42.1
82.1353,601.2
82.1506,146.9
82.1563,159.5
82.1866,378
82.1928,47.6
82.2107,44.6
82.2254,43.8
82.2304,725.5
82.2537,59.7
82.2602,338.8
82.2875,633.5
82.3069,513.7
82.3312,712.1
82.3384,124.3
82.342,653.5
82.3661,639.8
82.3667,201.1
82.414,62.9
82.4153,18.5
82.4244,197.9
82.4324,245
82.4459,84.6
82.4628,431.9
82.4644,41.5
82.4766,685.2
82.4837,42.2
82.4936,132.8
82.5636,143.8
82.5664,130.9
82.5951,20.4
82.6106,64.7
82.6188,145.7
82.6383,381.3
82.64,74.4
82.6738,43.7
82.6814,17
82.7272,113.2
82.7586,67.8
82.7778,18.2
82.7791,452.6
82.8184,603.2
82.8235,62.5
82.8482,476.3
82.8591,296.5
82.88,230.5
82.8895,63.7
82.9093,142.1
82.9173,51.2
82.9282,39.4
82.9447,5537.7
82.9629,713.3
82.9839,120.9
83.0041,459.1
83.0471,93.1
83.0504,451.8
83.0541,147.7
83.0637,40.8
83.0646,137
83.0743,133.4
83.0809,141.6
83.0853,54.3
83.1229,778.2
83.1236,319.3
83.1262,119.5
83.1328,88.2
83.1477,745.2
83.1624,102.4
83.1689,217.6
83.1702,661.5
83.1796,42.8
83.1835,47
83.2062,156.4
83.2188,46.9
83.2504,466.2
83.2558,457.2
83.2932,461
83.2968,94.5
83.3173,16.9
83.3302,332.7
83.3524,108.6
83.3617,117.6
83.3728,643.3
83.4019,206.9
83.405,488.7
83.4666,48
83.4828,46.3
83.5366,119.6
83.5573,279.9
83.5587,192.9
83.5874,596.4
83.5922,217.2
83.6024,40.6
83.6349,778.3
83.6437,742.6
83.6472,718.4
83.6887,297.9
83.6914,47.2
83.7365,18.3
83.7398,186.9
83.7516,460.5
83.7603,45.3
83.8013,174.9
83.8172,294.6
83.8412,140.8
83.8811,119.1
83.9013,250
83.9448,16.3
83.9512,80.9
83.9838,45.5
83.9937,126.7
84.004,139
84.0361,106.6
84.0367,45.3
84.0388,157.4
84.0397,44.4
84.0443,122.2
84.0455,175.3
84.0579,871.3
84.0621,187.5
84.0806,335.1
84.0995,44.9
84.1042,103.7
84.1051,46.2
84.1164,78.4
84.1191,155.5
84.1597,782.5
84.1674,58.8
84.1913,53.3
84.2029,345.5
84.2036,287.1
84.2124,71.2
84.2726,106.1
84.2953,169.8
84.3036,19.3
84.3163,651.4
84.3189,125.9
84.3225,101.3
84.3286,331.3
84.3391,268.9
84.3458,160.3
84.3625,102
84.3661,121.7
84.3761,66
84.3836,52.6
84.4143,51.6
84.4239,246.1
84.4366,78.4
84.4407,166.6
84.4604,144.8
84.469,41.5
84.4816,128.3
84.5261,55.6
84.5642,44.9
84.5947,119.2
84.5987,17.9
84.6076,328.8
84.6167,125.2
84.6385,413.7
84.6402,332
84.6504,696.8
84.6653,115
84.7194,41.4
84.7317,53.2
84.7704,42.3
84.7923,234.7
84.7993,58.7
84.8382,701.3
84.8441,380.9
84.8513,313.6
84.8642,68.9
84.9476,106.1
84.958,57.8
84.9595,21028.6
84.9762,638.9
84.9826,183.1
84.9854,63.7
84.989,42.8
85,636.7
85.0203,355.4
85.0282,2504.8
85.0365,339.6
85.0431,802.3
85.0454,88.9
85.0472,46.4
85.0495,236.7
85.0653,323.7
85.0694,46.9
85.071,19
85.0733,47.5
85.0767,108.9
85.0983,43.1
85.121,502.6
85.1271,327
85.1504,168
85.171,76.5
85.1845,92.7
85.1904,811.7
85.2176,145.9
85.2295,233.6
85.2976,128.5
85.2979,118.2
85.3112,58.4
85.3227,38.7
85.3262,283.9
85.3633,93.5
85.4356,236
85.4705,60.7
85.4835,377.2
85.4926,276.7
85.4938,46.2
85.5253,640.8
85.5394,256.5
85.556,75.3
85.5639,229.6
85.5863,47.9
85.6251,237.5
85.6308,134.2
85.64,48.8
85.6698,206.9
85.6804,315.7
85.7074,63.9
85.7199,127
85.7566,148.6
85.7681,41.2
85.7691,421.4
85.8679,205
85.9026,86.2
85.9127,589.5
85.9159,47.4
85.9186,354.7
85.9256,81.4
85.9688,153
85.9703,106.6
85.9712,194.9
86.0212,57.3
86.0229,185.8
86.0598,37968.9
86.0962,48329.9
86.1151,154.7
86.1433,137.8
86.1508,466.1
86.1978,140.1
86.2012,131.3
86.2635,241.5
86.2699,75.3
86.2818,140.2
86.2828,674.9
86.2935,166.4
86.301,61.8
86.329,670.7
86.3427,436.6
86.3515,78.8
86.3712,56.7
86.3809,60.4
86.3888,40.1
86.4168,38.1
86.464,246.9
86.5,365
86.5158,852.3
86.5492,244.1
86.5597,158.5
86.5949,566.1
86.6303,100
86.631,46.7
86.6381,41.9
86.667,135.2
86.6701,181.7
86.6822,196.6
86.7136,140.8
86.7323,411.9
86.7883,263.9
86.7929,288
86.8097,84.2
86.8299,647.5
86.8961,132
86.9526,100.6
86.9619,18
86.9919,207.3
87.0077,18.8
87.0954,63.1
87.131,122.3
87.148,134.7
87.1666,47.6
87.2024,846.8
87.2236,278.6
87.2337,380.6
87.2386,283.5
87.2395,303.5
87.2795,89.9
87.3078,697.1
87.3279,64.4
87.3426,309.5
87.361,46.3
87.3758,73.5
87.3821,174.6
87.3897,166.6
87.3917,370
87.395,41.4
87.3967,62.6
87.4022,356.1
87.4082,16.9
87.4122,155.9
87.4331,649.8
87.4364,200.2
87.4399,241.1
87.4471,250.8
87.4524,90.8
87.4647,830.2
87.4693,62.3
87.4842,248.7
87.4902,19.4
87.4936,186.8
87.5006,71.2
87.5011,228.2
87.5078,639.8
87.5487,112.6
87.6048,44.8
87.6595,740.3
87.6825,593.4
87.6838,171.2
87.729,249
87.7918,296.1
87.8257,57.9
87.8413,84.5
87.8522,143.7
87.8795,737.9
87.8922,66.5
87.9041,646.4
87.9055,137.3
87.9234,142.8
87.9236,160.7
87.9242,75.6
87.9293,503.2
87.9299,441.1
87.9302,328.7
87.9387,425.7
87.9609,337.2
87.9907,52.2
88.0391,11524.9
88.089,132.3
88.1231,70
88.1234,67.7
88.1342,657.6
88.1373,247.7
88.1458,291
88.1847,175.7
88.188,121.5
88.1969,60.8
88.1999,621.6
88.3015,38.3
88.3088,375.4
88.3192,125.6
88.3493,47.3
88.3608,65.4
88.4261,742
88.464,255.8
88.4725,64
88.4791,724.8
88.4927,116.2
88.5551,68.6
88.5713,42.8
88.5999,432
88.6048,72
88.6064,458.1
88.6391,778.6
88.6405,49.6
88.6485,77.8
88.681,44.1
88.6863,70.4
88.6915,77
88.6998,460.1
88.7071,74.6
88.7122,62.3
88.7369,881.2
88.7407,350.1
88.8196,51
88.8531,51.8
88.8566,364
88.8708,165.5
88.8851,15.8
88.8897,17.2
88.9065,114.6
88.9261,65
88.9298,72.5
88.9322,648.9
88.9377,42.1
88.948,317
88.9522,41.8
88.9564,179.6
88.9606,535.1
88.9683,50.6
88.9732,47
88.9742,630.5
88.9752,257.6
88.9884,59.5
88.9946,74.2
89.0217,252.2
89.0272,67.9
89.0366,17.2
89.0421,136.8
89.0489,594.3
89.0513,359.7
89.0586,72.1
89.0947,924.1
89.0961,630.2
89.1277,52.3
89.1312,43.2
89.1438,455
89.1782,108.1
89.1805,588.7
89.2071,44.6
89.2174,458.8
89.226,416.1
89.2297,104.4
89.2386,259.8
89.2689,45.2
89.278,163.5
89.2937,123.9
89.2983,230
89.3124,616.6
89.3337,495.5
89.3428,389.8
89.3532,729.4
89.3852,409.5
89.3874,50.3
89.4109,130
89.4112,154.7
89.4115,98
89.4292,85.1
89.4451,507.4
89.4719,76.8
89.479,66.6
89.4992,42.1
89.5142,83.1
89.5245,55.8
89.5306,262.4
89.5361,131.8
89.5683,128.7
89.5693,70.7
89.5735,45
89.593,56.9
89.5997,647
89.6299,380
89.6401,70.8
89.6769,40.8
89.6854,20.2
89.7041,116.1
89.7096,623.9
89.7704,151.6
89.8577,43.6
89.8619,68.9
89.8659,66.3
89.8689,287.7
89.8955,43.1
89.9202,115.2
89.9317,105.2
89.9456,21.4
89.9608,25.3
89.9634,46.6
89.976,134.5
89.9915,48.9
90.0126,811.6
90.0172,18.7
90.057,745.3
90.059,47.8
90.0831,166.8
90.109,86.1
90.1171,143.5
90.1262,86.1
90.1339,42.8
90.1351,21.7
90.1661,54
90.2097,761
90.2195,140.3
90.2223,17.5
90.2305,44.5
90.2476,215.4
90.2501,46.2
90.3181,85.5
90.33,686.8
90.3332,327
90.3411,47.8
90.3474,121.2
90.3652,140.6
90.3923,110.5
90.3977,114.8
90.4534,285.5
90.4635,67
90.4676,93.6
90.4692,18.2
90.4797,46.5
90.4899,136.5
90.509,98.7
90.5165,397.5
90.5184,117.4
90.5219,99.8
90.5376,504.5
90.5764,245.7
90.5816,638.2
90.5929,78
90.6277,45.2
90.6332,134.2
90.6386,368.1
90.6469,210.6
90.666,82.9
90.6744,131.6
90.7124,353.4
90.7188,83.7
90.7302,59.6
90.7482,116.4
90.7533,211.8
90.7544,659.2
90.7767,231.1
90.8035,18.6
90.8325,66.9
90.8449,79.6
90.8526,258.6
90.8794,82.2
90.8932,48.9
90.903,41.2
90.9405,74.4
90.9475,809.5
90.9517,231.9
90.9764,3954.1
91.0022,70.2
91.0098,72.9
91.0223,133.3
91.054,4999.2
91.0634,215
91.0777,652.6
91.0832,508.8
91.1004,476.9
91.1096,317.5
91.1159,94.2
91.1168,187.3
91.1249,708.9
91.1342,371.2
91.1603,225.8
91.1644,48.7
91.3088,482.9
91.3279,139
91.3387,272.1
91.3549,44.4
91.3667,53.8
91.3902,78.3
91.3913,154.2
91.4009,65.9
91.4047,66.7
91.4247,74.3
91.4317,488.9
91.4355,486.5
91.4477,112.2
91.4497,201.4
91.4538,164.6
91.4583,224.6
91.4648,17.1
91.4791,628.4
91.4856,177.8
91.5014,19.1
91.514,153.8
91.5532,143.9
91.562,43
91.5676,89.7
91.6012,277.4
91.6123,132
91.6143,776.6
91.6947,17.6
91.7152,63
91.7794,163.4
91.7883,286
91.7991,203.7
91.805,411
91.8454,655.1
91.8465,96.5
91.8589,491.3
91.8773,22.1
91.8804,40
91.8919,220.8
91.8952,93.9
91.9052,44.4
91.929,175.4
91.9734,265
92.0029,137.3
92.0125,456.5
92.0385,47.2
92.0493,67.2
92.0574,63.7
92.0703,94.8
92.0879,136.6
92.1269,140.6
92.1466,297.1
92.1804,632.1
92.1871,90.9
92.2188,76.6
92.2245,66.9
92.2259,74.3
92.235,593
92.2413,340.6
92.2539,48.4
92.2673,153.8
92.2696,91.6
92.286,39.1
92.2888,83.1
92.3198,17.5
92.3206,84.1
92.3535,44.8
92.3888,46.3
92.3917,118.1
92.3981,50.6
92.4236,294.7
92.4472,658.4
92.4591,16.6
92.4616,699.7
92.4674,310.9
92.4981,52.4
92.555,51.8
92.5793,17.7
92.5929,211
92.6134,40.4
92.6746,57.2
92.8063,132.3
92.8248,46.6
92.9117,171.1
92.9389,210.6
92.957,44.6
92.9735,369.3
92.9894,162.1
93.0125,426.5
93.0354,124.3
93.0416,452.4
93.0543,48.6
93.057,15.9
93.0694,773
93.0848,95.4
93.1068,208.9
93.1471,115.4
93.1844,442.4
93.2068,494.9
93.2381,120
93.2469,216.7
93.2489,73.9
93.2808,628.3
93.3184,53.7
93.3685,432.1
93.4202,185.9
93.4302,239
93.4609,116.1
93.4613,121
93.4681,203.7
93.4723,569
93.5088,340.8
93.5467,111
93.5643,241.1
93.6149,228.6
93.6348,386.8
93.6524,66.2
93.6532,52.7
93.6543,18.4
93.6555,268.8
93.6623,175.6
93.6747,63.6
93.6876,41.3
93.702,18.8
93.741,58.1
93.7429,100.7
93.7647,44.7
93.7895,769.1
93.82,448.3
93.8217,61.5
93.8719,641.9
93.8729,22
93.8899,336.4
93.9161,101.1
93.9413,272.6
93.9455,279.1
93.9565,162.7
93.9765,424.4
94.0216,39.8
94.0278,42.3
94.0395,95.8
94.0412,146407.5
94.0426,33.6
94.0507,55
94.0672,180.2
94.106,491.4
94.1315,86.7
94.1595,149.8
94.1728,120.5
94.179,50.7
94.2168,60.6
94.2199,126.7
94.2397,19.1
94.2964,51.6
94.3083,342
94.3617,25.2
94.374,63.6
94.3802,69.8
94.3977,19.8
94.4039,568.8
94.4131,688.7
94.4162,280.6
94.4237,75.7
94.4267,203.5
94.4285,509.4
94.4722,324.1
94.4893,306.5
94.4922,349.2
94.5463,126.9
94.6634,48.6
94.669,74
94.6843,59.5
94.7074,18.5
94.7493,17.5
94.7511,50.4
94.7582,58.5
94.7747,271.7
94.784,45.3
94.7915,365.9
94.8086,343.8
94.816,96.4
94.8183,727.7
94.8399,642.5
94.8474,120
94.8508,106.3
94.8549,82.5
94.8644,168.7
94.91,655.2
94.9112,48.9
94.9339,313.9
94.9566,164.9
94.9765,57.2
94.9816,20.8
94.9968,45
95.0008,16.5
95.0175,127.7
95.0397,190.2
95.0445,4968.4
95.0473,33.1
95.049,433575.3
95.0578,67
95.0644,246.8
95.0853,718
95.1162,191.8
95.1194,51.5
95.1486,519.6
95.1525,131.4
95.165,377.3
95.1884,685.4
95.1992,241.1
95.2096,66.9
95.2172,39.4
95.2318,168.7
95.2592,17.4
95.2799,201.7
95.2904,218.7
95.3079,79.9
95.3094,41.2
95.3249,92.6
95.3688,189.5
95.3989,389.5
95.4217,150.2
95.443,21.8
95.451,630.3
95.4614,97.5
95.4621,912.3
95.4677,45.1
95.4752,147.7
95.4919,44.4
95.5174,113.4
95.5426,48.8
95.5776,46.7
95.5861,465.3
95.5899,54.8
95.6039,94.3
95.6121,118.5
95.66,87
95.6683,125.9
95.6934,195.8
95.7108,388
95.7121,495.6
95.7321,331
95.8301,18.7
95.8543,450.6
95.8562,789.9
95.8736,179.5
95.8763,95.8
95.922,44.2
95.9346,54.1
95.9831,185.7
95.9854,62.3
96.0017,65
96.0219,42.7
96.0292,48.4
96.0523,21135.4
96.1027,332.6
96.1049,183.4
96.1122,51.2
96.1213,19
96.1224,89.5
96.1378,117.1
96.1416,172.2
96.1448,138.5
96.1478,96.8
96.1817,71.9
96.1933,42.8
96.1971,206.8
96.2115,603.1
96.2123,127.4
96.2133,209.3
96.2142,49
96.2158,428
96.2254,46.7
96.2272,526.7
96.2281,115.4
96.2748,226.1
96.2826,196.8
96.2837,87.5
96.2871,225.8
96.3057,1360
96.3071,95.8
96.32,65.4
96.3504,200.6
96.3754,163.2
96.4078,78.5
96.4091,19.3
96.4135,206
96.4278,126.2
96.4407,67
96.5148,180.2
96.558,787.5
96.5819,41.6
96.628,209.1
96.6291,66.2
96.663,48
96.6839,107.6
96.7358,204
96.7486,416
96.7706,231.3
96.7794,19.9
96.7932,18.6
96.8717,367.3
96.8869,52.3
96.9216,97920.5
96.9284,161.7
96.9377,22.8
96.9487,429.1
96.9735,159.3
96.9915,451.3
97.0074,25.2
97.0106,19
97.0411,578.6
97.0579,41.9
97.0646,51.9
97.069,51.9
97.0765,46.7
97.101,54.3
97.2273,121.6
97.304,84
97.3203,231.7
97.3614,72
97.3714,567.6
97.4022,100.7
97.4402,73.7
97.4587,57
97.4659,134.9
97.4684,64.9
97.4752,190.6
97.4777,341.6
97.4794,312.4
97.481,353.2
97.4864,43.4
97.4875,677.7
97.5246,94.4
97.5567,69.1
97.5958,64.8
97.6625,328.3
97.6728,50.8
97.6932,452.9
97.6981,454.7
97.7243,47.5
97.7337,227.6
97.7427,762.4
97.7574,511.9
97.7751,49.5
97.7811,114.7
97.7923,70
97.803,38.6
97.8081,806.7
97.8091,82.5
97.8374,623.1
97.8544,107.3
97.8772,175.9
97.9182,17.9
97.9372,46.1
97.9465,184.2
97.996,45.4
97.9981,425.1
98.0195,96.1
98.0482,192.6
98.1081,673.9
98.1388,42.9
98.1758,58.4
98.2539,52.6
98.2795,64.4
98.2839,791.8
98.338,19.9
98.3446,170.8
98.4204,53.4
98.4231,778.5
98.4347,548.7
98.5504,479.8
98.5715,78.3
98.5803,71.2
98.5891,715.1
98.5997,332.9
98.6127,207
98.6182,193
98.6397,55.3
98.6451,165.5
98.6809,188.4
98.688,808
98.72,39.8
98.7285,69.4
98.7694,190.3
98.7928,131.8
98.8001,150.7
98.8162,100.5
98.8322,139
98.8673,282.8
98.8725,19.4
98.8878,183.7
98.9027,215.7
98.9187,24320.6
98.9197,2929.7
98.9435,142
98.9506,72.9
98.9561,802
98.9597,642.4
98.9752,7290.8
98.984,85.7
98.9979,84.1
99.0633,457
99.07,43.3
99.0915,269.9
99.102,80.1
99.1114,610.8
99.122,51.4
99.1295,142.8
99.1615,15.5
99.1721,47.8
99.1803,19.9
99.1843,281.2
99.2046,180.5
99.2166,827.4
99.2335,311.8
99.2759,56
99.2991,44.5
99.315,119.2
99.3489,196.1
99.3552,45
99.385,64.2
99.4289,44.8
99.4548,770.1
99.4666,50.3
99.487,50.9
99.4942,49.9
99.5093,280.5
99.545,66.9
99.5671,584.6
99.5764,48.6
99.6106,121.9
99.628,63
99.6914,112.1
99.7017,855.7
99.7366,533.9
99.7444,100.9
99.7771,52.3
99.8048,47.7
99.8184,498.8
99.8332,88.1
99.895,102.5
99.9166,724.4
99.9481,289.5
100.0156,44.5
100.0317,43.8
100.0333,91
100.0755,26.9
100.0995,505.3
100.1467,181.2
100.1567,254.3
100.1789,398
100.2079,842.1
100.2181,163.3
100.2526,766.3
100.2583,664.3
100.2616,73
100.2746,40.4
100.2913,366.3
100.3371,322.6
100.3644,61.5
100.4273,287
100.4288,358.4
100.4366,688.2
100.438,307.3
100.4543,54.3
100.4622,732.8
100.4736,60.3
100.4886,404.1
100.5033,70.4
100.5289,43.3
100.538,70.7
100.58,130.4
100.607,192.3
100.6077,298.6
100.6317,170
100.6476,55.9
100.6552,62.6
100.666,111.1
100.7217,88.2
100.7302,76.5
100.7348,42.3
100.7436,55.2
100.7648,163.9
100.7822,17.9
100.8273,268.7
100.85,135.8
100.8707,90.3
100.877,336.6
100.882,789.1
100.8879,669.1
100.8941,89.2
100.9086,40.4
100.9203,226.4
100.959,421.8
100.9679,69.8
100.9819,76.4
101.0032,38.1
101.0316,164.1
101.0344,61.6
101.047,2697.9
101.0772,334.9
101.0919,417.1
101.1668,43.3
101.1735,580.3
101.2347,23.9
101.2478,818
101.2837,57.4
101.288,403.9
101.3101,782.5
101.3293,768.3
101.3415,16.8
101.3486,199.8
101.3758,229.6
101.4485,234.4
101.4493,314.6
101.4496,297.6
101.4622,139
101.4634,63.7
101.5045,48
101.5345,38.8
101.5494,52.6
101.6035,64.3
101.6296,780.5
101.6316,327.7
101.6343,319.2
101.656,47.9
101.6927,77.2
101.702,194.1
101.7236,233.7
101.7255,49.5
101.7322,134.6
101.7893,68
101.7947,203.6
101.7966,727.2
101.8286,19.4
101.8567,112.5
101.8673,597.1
101.8945,48.1
101.9032,50.2
101.9466,18.4
101.9635,25.1
101.9699,90.4
101.9748,45.1
101.995,162.8
102.0548,5365.7
102.0929,161.6
102.1094,331.5
102.1192,86.8
102.1439,794
102.1631,640.2
102.1723,121.8
102.1807,86.2
102.2279,763.1
102.2375,131.2
102.2394,352.1
102.3652,477.9
102.369,101.3
102.4015,333.9
102.4173,58.4
102.428,107.5
102.4662,867.5
102.47,56.6
102.48,174.2
102.4815,138
102.492,209.2
102.4944,46.7
102.5054,797.7
102.5256,182.3
102.5472,126.5
102.569,65.4
102.5763,56
102.5898,403.7
102.6017,45.9
102.6036,18
102.6144,46.7
102.6604,123.8
102.6642,165.8
102.6868,106.6
102.7084,225.5
102.7219,82.3
102.7263,303.2
102.732,147
102.7571,657
102.7951,54.7
102.8054,97.8
102.8119,420.3
102.82,457.3
102.9044,345.8
102.9323,619.5
102.9475,29.3
102.9607,67.2
102.9679,117.2
102.9701,747.3
102.9973,61
103.0541,590.6
103.0748,61.6
103.092,228.3
103.0992,73.3
103.1197,284
103.208,62.3
103.2192,53.5
103.2725,69.1
103.3313,42.7
103.402,46
103.4103,46.6
103.4644,47
103.4654,105.6
103.4685,671.6
103.4923,343
103.503,105.7
103.5297,236.5
103.5453,95.6
103.5575,68.3
103.5896,57.8
103.5997,103
103.6302,38.3
103.6569,44.9
103.6836,159.7
103.6995,134.7
103.7159,43.3
103.7266,422.6
103.7387,721.9
103.7807,183.2
103.8253,49.5
103.8522,85
103.864,170.1
103.8856,47.7
103.9396,19.2
103.948,76.4
103.9663,27.7
103.9791,78.1
103.9843,139.8
103.9933,67.7
103.9958,365.9
104.0167,50.4
104.0614,40
104.0706,64.8
104.079,182.3
104.104,21.6
104.1068,214551.1
104.1183,82.8
104.1494,91.4
104.1674,44
104.1724,72
104.2209,166.9
104.233,181.4
104.2343,523
104.2487,630.2
104.2507,341.1
104.2583,320.8
104.2619,51.6
104.2662,60
104.3331,781
104.3372,226.2
104.3389,18.7
104.3701,65.2
104.4116,191.2
104.4611,76.3
104.4895,188.1
104.4992,598.7
104.5708,71
104.5746,270.9
104.5907,62.3
104.6109,51.7
104.6154,134
104.6368,344.2
104.6557,118.7
104.6565,57.3
104.6645,113.5
104.6686,421.3
104.6926,139
104.6943,19.3
104.7155,61
104.7507,17.5
104.777,813.4
104.8419,373.5
104.8435,185.3
104.8581,188.7
104.8907,153.1
104.9042,309.7
104.9052,68.6
104.9374,306
104.948,86.5
104.9583,225.1
104.9632,2462.2
104.9659,387.5
104.9921,2317.1
104.9993,47.4
105.0446,44853.3
105.0493,48.2
105.0657,94.9
105.1102,5760.1
105.1371,277.7
105.1519,46.8
105.1654,96.7
105.1673,253.2
105.1768,85.9
105.1822,47.4
105.2019,210.8
105.203,74.9
105.2182,17.6
105.2428,146.8
105.3268,88.6
105.3351,50.3
105.3458,199
105.3515,96.8
105.3659,64.7
105.4038,242.7
105.526,47.6
105.5282,91.3
105.5371,37.9
105.5783,764.5
105.6082,93.2
105.6373,44.4
105.6482,577.1
105.6705,616.5
105.6919,95.9
105.7013,179.7
105.7366,117
105.759,46.2
105.8326,49.1
105.8498,64.4
105.8737,653.5
105.8999,199.3
105.9107,347.7
105.9171,59.2
105.9414,125.9
105.9612,64.7
106.0293,20.4
106.0319,739.4
106.0409,205.3
106.0479,938.2
106.058,318.9
106.0738,144
106.0794,76.4
106.0915,89.1
106.1005,349.1
106.1454,201.6
106.1519,60.8
106.1638,190.1
106.1765,180.4
106.2015,36.4
106.2127,288
106.3011,44.2
106.3261,88.3
106.34,105.9
106.3459,43.8
106.4059,52.6
106.4638,48.8
106.49,126.8
106.4945,83.7
106.5346,333
106.5645,147.2
106.5801,316.3
106.5827,56.5
106.601,73.4
106.6061,60.3
106.6495,51.2
106.6674,587.9
106.7157,184.1
106.7381,235.8
106.7423,16.6
106.7586,230.2
106.7642,295.3
106.8345,878
106.8637,64.6
106.8686,664.1
106.8842,374
106.9036,487.9
106.9256,55.4
106.9506,571.5
106.9535,414
106.9636,59
106.9692,122.2
106.9784,688.5
106.9918,28.7
107.0282,128.6
107.049,2058.3
107.0642,39.4
107.0772,90.7
107.1014,46.2
107.1035,239.3
107.1167,182.3
107.1309,194.6
107.1339,455
107.1872,43.8
107.2436,180.8
107.3243,106.3
107.3655,763.1
107.3704,79.6
107.3822,314.8
107.3949,148.6
107.4478,137.1
107.519,326.3
107.5311,346.1
107.5457,134.6
107.6481,78.8
107.6632,629.1
107.729,43.7
107.7977,661.7
107.8352,94.5
107.8797,637.8
107.9233,210.7
107.9335,74.8
107.9366,73
107.947,86.8
107.9651,397.9
107.9917,461.4
108.0025,694.2
108.0186,101.4
108.035,144.3
108.0494,351.6
108.0569,54.6
108.0684,414.7
108.1439,77.8
108.145,374.2
108.162,161.6
108.1671,192.8
108.2016,159.2
108.2226,18.8
108.3512,355.6
108.357,254.4
108.3589,47.8
108.3668,313
108.3746,65.4
108.394,277.6
108.4068,174.9
108.4362,730.5
108.4709,56.1
108.4757,225.3
108.4942,41.4
108.5523,68.2
108.5997,302.3
108.6146,490.7
108.6198,62.5
108.6568,350.9
108.6577,18.2
108.6827,388
108.7077,125.4
108.7742,705.6
108.7755,224.1
108.8033,466.5
108.8166,51.4
108.8868,45.5
108.8935,104.2
108.9091,816
108.926,42.7
108.9582,21.5
108.9748,138
109.0105,24.9
109.0494,240.6
109.0627,28.6
109.0647,166403.8
109.0664,55.2
109.0689,215.9
109.0701,299.1
109.0768,288.8
109.101,89
109.1595,589
109.173,140.2
109.2249,74.9
109.266,39.5
109.2665,39.4
109.2729,395
109.2794,339.6
109.2877,80.8
109.2935,92.3
109.2956,170.9
109.3101,138.8
109.323,318.7
109.3329,212.1
109.3351,150.2
109.3499,715
109.3662,197.8
109.392,125.5
109.4052,170.7
109.4944,217.1
109.5451,571.2
109.5932,327.4
109.6182,162.9
109.6293,123.4
109.6898,764.1
109.7014,88
109.7101,19.1
109.7112,792.1
109.7297,41.8
109.7587,67.3
109.766,335.7
109.7948,17.2
109.816,143.8
109.8422,150.1
109.8498,151.6
109.8546,72.9
109.859,88.7
109.8906,60.4
109.9369,129.1
109.9538,50.9
109.9676,44.7
109.9729,47
109.9902,67.1
110.0199,86.8
110.0219,40.3
110.0246,46.3
110.0362,46.9
110.0494,110.4
110.068,9056.8
110.0711,2290.5
110.1062,254
110.1207,119.3
110.1431,282
110.2139,22.4
110.2293,403.2
110.3,107.5
110.35,512.8
110.3687,439.8
110.3781,138.9
110.3995,538.8
110.4043,335.3
110.4087,174.3
110.41,39
110.4204,270.5
110.4747,52.1
110.5952,374.6
110.6715,64.3
110.6746,47.1
110.8385,166.1
110.8428,700.8
110.8545,103.5
110.8756,57.9
110.9054,155.2
110.9736,94.3
110.9958,119.6
111.0026,355.2
111.0231,165.2
111.0439,861.7
111.0524,178.3
111.0716,25.8
111.093,294.8
111.1122,610
111.1722,101.6
111.1992,243
111.2598,50.9
111.2993,421
111.3024,137.4
111.3357,65.2
111.3823,58.9
111.4091,106.1
111.4311,41.2
111.4506,267.2
111.4636,48.9
111.484,316.9
111.5495,84.3
111.6628,53.7
111.6748,47.3
111.6914,17.6
111.7456,53.4
111.7489,384
111.7929,323.9
111.8222,41.4
111.8518,45.5
111.8577,326.5
111.8724,22.8
111.9043,166.4
111.9466,149.7
111.9703,152.1
111.9769,198.5
111.9834,139
112,69.5
112.0459,752.6
112.0588,59.1
112.0994,1127.2
112.1158,121.9
112.1199,590
112.1297,700.7
112.2324,478
112.2348,137.6
112.2387,108
112.262,45.6
112.267,308.9
112.3517,592.5
112.3706,79.3
112.3784,272
112.4159,66.5
112.4185,57.4
112.4279,345.3
112.4367,810.2
112.5141,48
112.5296,68.9
112.5309,20.9
112.5347,64.6
112.5638,471
112.5827,101.9
112.5847,202.6
112.7709,514.1
112.8242,44.7
112.8468,99.5
112.8745,68.3
112.8956,314474.3
112.9659,1084.6
112.9795,930.2
112.9975,152.7
113.0353,16.8
113.0479,87.9
113.0524,346.6
113.0527,343.2
113.0742,520.3
113.0977,277.3
113.1072,3765.7
113.1651,244.9
113.2018,76.2
113.2146,69.4
113.2192,334.5
113.2429,799.4
113.252,60.1
113.3243,132.2
113.346,96
113.3758,18.7
113.3838,733.4
113.3917,170.4
113.3965,47.9
113.4377,179.7
113.4445,136.5
113.4582,59.5
113.4723,375
113.4756,57
113.4989,44.2
113.5122,90.1
113.5367,22.2
113.5455,67.6
113.5915,72.5
113.6022,74.6
113.6348,318.9
113.673,72
113.676,67
113.7385,205.8
113.7594,40.5
113.7702,53.7
113.7978,100.4
113.8189,673.8
113.8287,969
113.8536,80.3
113.8776,607.8
113.9181,189.2
113.9435,55.6
113.9534,93.3
113.9634,20.5
113.966,19.5
113.9767,25.1
113.9814,473.3
113.9845,866
114.0443,77.5
114.0549,78414.6
114.0661,2107
114.0967,50.7
114.1005,60.2
114.1104,588.3
114.1191,146.5
114.1234,429.6
114.1425,43.6
114.2554,214.6
114.3183,148.3
114.3346,88.4
114.3392,629.3
114.3638,281.5
114.4616,288.6
114.4934,300.9
114.5674,67.1
114.5802,41.4
114.6004,50.7
114.6218,58.1
114.6469,136.2
114.6596,675.3
114.7148,116.9
114.7192,554.4
114.7881,69.8
114.7999,356.4
114.8301,304.9
114.8649,664
114.8927,95494.2
114.9246,86.5
114.948,457.8
114.9575,66.5
114.9836,91.6
115.0011,143.1
115.006,80
115.0234,107.8
115.0364,18.9
115.039,100.7
115.0521,53.5
115.0582,2273.3
115.0864,328.9
115.1228,138.4
115.1314,233.5
115.2094,78.4
115.2213,47.5
115.2607,484.8
115.3157,16.8
115.3678,67.7
115.3977,303.2
115.407,340
115.412,111.8
115.416,48.5
115.4206,130.5
115.4781,439.1
115.4788,323.7
115.5196,138.2
115.5571,333.7
115.5776,241.3
115.6594,75.2
115.6653,55.9
115.7828,798.7
115.7846,118.5
115.7865,122.1
115.7951,60.1
115.8099,67.9
115.811,71.7
115.857,78.4
115.8594,141.7
115.8631,292.7
115.9269,71.3
115.9317,81.3
115.936,56.6
115.9792,105.7
116.002,368.8
116.0495,105.7
116.0531,138.4
116.0542,108.9
116.0705,5924.2
116.107,20.3
116.1301,131.4
116.1347,45.5
116.1462,409.4
116.1651,47.3
116.1787,48.4
116.2061,50.7
116.2304,54.5
116.2363,326.2
116.2901,647.4
116.2922,139.7
116.2971,55.1
116.3377,233.1
116.3649,342.4
116.4101,130.9
116.5579,582
116.5747,746
116.5789,53.9
116.6051,46.9
116.6291,43.5
116.7757,231.2
116.7796,237.8
116.8238,53.1
116.8908,7718.7
116.8938,172.2
116.9029,630.6
116.9145,267.1
116.9632,55.6
116.9836,25.8
116.9858,6100.2
116.9929,153.6
117.0696,24.8
117.0958,130.7
117.153,219
117.1863,670
117.231,909.1
117.242,87.6
117.2516,750.1
117.2799,100.5
117.2944,442.9
117.3052,68.3
117.3184,73.3
117.3203,494.7
117.3389,44
117.3591,188.8
117.3825,159.6
117.4211,20
117.4247,128.3
117.4267,254.7
117.4597,49.4
117.4631,64.5
117.4861,764.9
117.4977,369.9
117.5024,56
117.5199,95.2
117.5797,396.8
117.5904,45.3
117.6075,343.9
117.6227,90.4
117.6509,43.6
117.6643,327.2
117.6679,104.3
117.6787,82.9
117.7782,17.8
117.8059,80
117.8071,89.6
117.8135,152.7
117.8214,104.7
117.8488,82.1
117.9094,67.4
117.9164,246.9
117.9253,101.1
117.9445,50.2
117.947,56.7
117.9544,57.9
118.0157,141.7
118.0648,84.2
118.0851,542.4
118.1178,71.5
118.1271,44
118.1467,348.5
118.1841,186.9
118.2306,359.3
118.2316,165.5
118.241,806.3
118.2474,47.4
118.2724,425.4
118.3141,93.5
118.3262,135.9
118.3767,177.5
118.3783,53.1
118.381,20.6
118.3943,674.1
118.4064,57.1
118.4384,410.6
118.4632,709.9
118.5078,412.3
118.5157,339.2
118.5512,461.4
118.5971,54.3
118.6014,49.9
118.617,112.9
118.6732,759.4
118.7651,363.1
118.7688,48.9
118.7884,23.3
118.8298,90.3
118.8874,64.9
118.8887,49.1
118.8934,53.3
118.9296,309.9
118.9425,209.3
118.9618,64.7
118.9789,1098.8
118.9847,381.2
119.0109,375.9
119.0263,70.7
119.0394,48.5
119.0424,667.3
119.0691,300.2
119.1561,20.7
119.1671,90.6
119.1788,149.7
119.1863,347.8
119.1921,770.4
119.2395,186.6
119.2623,182.5
119.2718,543.9
119.2907,45.2
119.2996,450.2
119.4495,46
119.5038,222.6
119.5249,763.5
119.5978,406.8
119.6084,18.3
119.6521,110.3
119.6803,20.5
119.6837,606.3
119.6898,111.2
119.6902,109.8
119.6984,226.3
119.7645,80.7
119.8036,200.6
119.8087,682.2
119.8629,161.4
119.9381,19.6
119.9568,52.3
119.9795,19
120.0032,1071.3
120.0227,331.2
120.0682,94
120.0736,82.1
120.0806,3522.3
120.1007,74.2
120.1257,366.4
120.2085,329.3
120.2523,805.5
120.2776,49.1
120.3027,88.6
120.3328,61.2
120.3454,122.1
120.4028,284.7
120.406,71.1
120.5006,121.9
120.5092,332.6
120.5376,97.3
120.6021,70.3
120.6074,92.7
120.6372,104.3
120.6654,53
120.6701,68.1
120.6853,265.2
120.695,111.5
120.7019,420.9
120.7058,53.7
120.7217,46.1
120.7255,124.8
120.7279,138.4
120.7405,117.7
120.7538,177.3
120.8264,93.6
120.8288,43.7
120.83,44.7
120.8427,268.6
120.8859,46.1
120.9083,67.2
120.943,16.8
120.9485,180.8
120.9553,18
120.9652,76.5
120.9792,23
120.9808,79.3
120.9855,77.4
120.9911,145.8
120.9935,130.8
120.9978,92.6
121.0075,361
121.0106,185.8
121.0283,266.8
121.0393,477.5
121.047,39.9
121.089,351
121.101,122.8
121.1645,18
121.1712,147.5
121.1801,429.5
121.2405,84.3
121.2774,48.3
121.2962,354.6
121.3403,16.6
121.3471,46.1
121.3492,100.3
121.3816,65.5
121.3877,641.8
121.3906,121
121.5184,63.4
121.5375,142.3
121.5565,233.2
121.5798,90.4
121.6639,145.7
121.6765,349.1
121.6867,51.1
121.7029,104.7
121.7052,120.3
121.7358,50.5
121.7389,211.1
121.741,15.4
121.7575,347.3
121.7727,146.6
121.7743,47.8
121.7778,616.9
121.8359,208.8
121.8377,616.4
121.844,465.7
121.8911,73.8
121.8984,309.9
121.9063,61
121.9417,145
121.9624,22.5
121.9921,143.8
122.0571,616.3
122.0685,88.7
122.0704,276.1
122.0723,315.7
122.0779,48.1
122.1059,479.8
122.1065,437.9
122.1172,62
122.1264,542.4
122.1829,46.3
122.1855,45.1
122.1923,337.1
122.2013,47.5
122.2156,55.6
122.2426,282.9
122.2571,796.3
122.2891,45.6
122.292,115.6
122.3285,20.4
122.3336,143.2
122.3394,598.1
122.3524,70.3
122.4683,105.3
122.5153,55.3
122.5569,89.5
122.569,684
122.5863,471.3
122.6224,88.2
122.6739,178.9
122.6751,71.4
122.7047,673.9
122.7442,150.4
122.7595,196.2
122.7714,80.8
122.7848,346.4
122.8393,97.1
122.8481,162.3
122.8827,141.7
122.9138,49.8
122.9244,9299.6
122.9292,19.7
122.9711,18.3
122.9739,132.5
122.9901,699.5
122.9996,107.4
123.0068,424.1
123.0079,381.1
123.0442,251.8
123.0583,652
123.0789,106
123.0804,59.4
123.1169,58.5
123.1242,95.9
123.1783,183.6
123.2185,186.1
123.2334,920.1
123.2554,16.7
123.2637,160
123.2899,738.1
123.3016,99.9
123.3113,81
123.3795,92.3
123.3893,320
123.3942,222.1
123.4179,383.2
123.4267,44.1
123.4632,193.4
123.4668,114.2
123.48,118.1
123.4855,231.2
123.4984,137.9
123.6034,832.4
123.6192,18.3
123.6237,487.3
123.6328,243.8
123.676,79.3
123.7052,17.7
123.7121,136
123.7337,45.2
123.7392,789.1
123.8011,47.5
123.8029,383.9
123.8118,124.7
123.9233,698.8
123.9535,362.1
123.9602,641.3
124.021,47.7
124.0565,379.8
124.1302,123.7
124.157,205.4
124.1757,17.8
124.2309,154.9
124.2354,44.4
124.2395,403.6
124.2871,150.5
124.3589,44.8
124.3654,497.6
124.4034,551.3
124.4204,464.5
124.461,45.6
124.4692,66.2
124.4779,744.3
124.5122,356.1
124.6064,16.8
124.6282,448.1
124.6926,679.3
124.7105,184
124.7573,49.3
124.7715,215.8
124.8031,369.3
124.8178,208.4
124.8547,96
124.8957,101
124.9225,888.2
124.9243,62.7
124.9472,141
124.9601,40.5
124.9631,774.6
124.9854,69.1
124.9996,1318
125.0056,301.6
125.0357,53.4
125.0388,287
125.0441,425.2
125.0481,207.5
125.0597,151.6
125.1224,47.1
125.1528,193.3
125.1887,41.2
125.2231,114.3
125.2613,293.2
125.3586,50
125.3784,358.9
125.4158,131
125.4181,19.5
125.4368,598.7
125.4837,351.7
125.4918,465.5
125.522,48.1
125.5476,452.9
125.5817,77.1
125.5845,76.5
125.6066,64.3
125.6584,46
125.6664,545.5
125.706,40
125.7212,230.3
125.727,630.2
125.7387,56.6
125.8676,446.4
125.9491,810
125.9896,81.2
125.9999,36.8
126.0245,481.5
126.0385,78.1
126.0589,49.6
126.0608,308.5
126.0817,215.5
126.0891,380
126.1297,750.1
126.1384,99.1
126.1504,102.7
126.1671,233.8
126.2413,132.9
126.2648,93
126.3101,285.3
126.3167,94.2
126.3921,76
126.4349,45.8
126.4406,382.3
126.4624,158
126.5099,43
126.542,98.9
126.5471,690.3
126.5555,275.6
126.6121,63.4
126.6434,735.2
126.7159,123
126.7314,154.4
126.7918,64.1
126.7946,243.1
126.7958,74.4
126.8043,693
126.8185,348.1
126.84,120.9
126.887,45.5
126.9256,91.5
126.9862,149.5
127.0127,450.6
127.0475,155.4
127.0737,170.8
127.1097,671.2
127.1184,48.3
127.1252,441.6
127.1303,134.5
127.1625,42.5
127.1704,79.1
127.1881,830.8
127.1936,69.9
127.2005,206.2
127.2098,176.7
127.2335,16.4
127.2365,111.5
127.2765,449.3
127.2779,797.8
127.2822,521.8
127.353,74.7
127.3552,43
127.428,197.8
127.4341,43.2
127.4448,102.9
127.4649,855.3
127.4697,104.1
127.478,83.7
127.492,36.7
127.4927,41.9
127.5525,56.1
127.6545,43.8
127.6582,104.1
127.6734,49
127.6916,43.8
127.7349,223.2
127.7362,65.7
127.7421,354.1
127.7501,50.4
127.7993,19.4
127.8458,50.5
127.9077,369.5
127.9673,93
127.9794,22.4
128.0077,65.6
128.0391,156.7
128.0761,753.6
128.1178,41.5
128.2497,301.1
128.2539,187
128.2828,75.7
128.329,19.9
128.4442,41.7
128.4724,88.8
128.4813,48.6
128.4845,559.8
128.5073,949.4
128.5489,100.6
128.6178,65.5
128.6308,118.4
128.6933,223.6
128.7175,46.6
128.769,185.4
128.8031,85.4
128.8173,93.3
128.8224,67.8
128.8408,446.8
128.8658,128
128.8691,48.6
128.8765,50.1
128.9117,44.4
128.9122,75.6
128.9128,57.5
128.9247,139
128.9477,45.5
128.9637,797.4
128.9674,18.5
128.9725,67.1
128.9984,795.2
129.0331,229.6
129.0632,17.9
129.0657,488.1
129.0676,122.3
129.0745,72.3
129.1152,160.4
129.2092,61.4
129.2212,67.5
129.2307,167.9
129.2567,282.2
129.2618,171.3
129.2717,367.3
129.2763,109.8
129.2994,375.8
129.3096,212.5
129.3282,137
129.3808,80.1
129.385,843.7
129.39,195.6
129.4857,203.2
129.5262,475.3
129.5625,60.5
129.5752,132.1
129.5939,390.8
129.5995,333.3
129.6354,75.6
129.6399,525.3
129.665,245.4
129.6716,17.6
129.6856,68.9
129.7153,117.5
129.7349,18.3
129.7499,90.2
129.7794,78.9
129.8005,118.7
129.8161,44.1
129.828,140.1
129.9045,829.1
129.9249,332.2
129.9418,42.3
129.9586,26.5
129.9769,195.2
129.9949,110.4
129.9991,18.8
130.0498,4199.6
130.0647,150
130.0862,361
130.0998,64.6
130.1466,161
130.1502,47.8
130.1807,107.1
130.2517,43.9
130.3784,645
130.4258,132
130.4722,43.2
130.6102,18.4
130.6766,386.3
130.708,692.5
130.72,19.6
130.7637,328.7
130.8876,112.3
130.9639,626.2
130.9655,148.3
130.9791,48.7
131.0015,25.8
131.0032,204.8
131.007,387
131.0112,694
131.0204,57.1
131.0634,193.2
131.0792,117.4
131.1252,67.1
131.222,309.9
131.2472,16.7
131.2661,217.2
131.3023,414.3
131.3209,70
131.364,83.5
131.3939,219.9
131.4681,56.5
131.4892,150.9
131.4913,623.5
131.5064,18.3
131.5296,189.1
131.5371,88.7
131.5453,57.4
131.6092,119.3
131.6114,73.4
131.6189,39.7
131.6497,250.6
131.6585,313.3
131.6926,223.7
131.7342,747.1
131.8076,61
131.9005,75.6
131.9137,53.2
131.9612,27.4
131.9621,67
131.9625,60.7
132.0031,23122.4
132.0196,509.5
132.0462,352.9
132.0597,46.3
132.0655,164608.9
132.0767,1127.7
132.1239,827.1
132.15,150.3
132.2007,400.4
132.2296,703.6
132.2682,49.1
132.3015,714.6
132.307,72.5
132.3538,46.5
132.3762,41.4
132.3849,264.1
132.3988,361.9
132.4425,199.8
132.4444,592.6
132.4624,871.7
132.4678,112.6
132.4839,41.6
132.5932,193.7
132.6167,711.1
132.6361,16.7
132.6459,181
132.6493,43.4
132.679,56.4
132.6842,135.8
132.6953,354.4
132.7705,147.2
132.7743,58.3
132.8991,804.8
132.9582,604.4
132.9693,757.5
132.9872,1104.4
133.0084,188.2
133.0451,130.5
133.0688,6568.7
133.0859,26.6
133.0971,23704
133.1347,62.5
133.1413,343.1
133.1719,78.6
133.2802,45.2
133.2816,716.4
133.2943,499.5
133.3897,200.1
133.4108,120
133.4338,97.5
133.4724,782.6
133.4803,199.6
133.5523,75.6
133.5559,37.9
133.5814,179.7
133.6292,527.1
133.6878,431.5
133.6896,50.1
133.7046,89
133.7107,53
133.7236,143.9
133.7242,123
133.7249,118.1
133.7702,139.6
133.834,296.5
133.8491,150.6
133.8998,83.8
133.9345,162.3
133.9602,385
134.0188,5444.5
134.0256,517.5
134.0449,49.4
134.0516,114
134.059,119.6
134.0696,140.5
134.0712,233.9
134.0898,130.8
134.0977,373
134.1454,75.8
134.3026,20.4
134.3481,74.2
134.3496,53.1
134.4148,603.1
134.4197,245.6
134.4558,193.8
134.4722,96.6
134.5509,104.4
134.5554,59.8
134.5621,64.5
134.5683,373.9
134.655,17.8
134.6588,96.6
134.7084,92.6
134.7171,67.1
134.7587,290.9
134.7989,73
134.8506,77.8
134.8594,158.4
134.8651,320.4
134.8709,480.9
134.9591,18.4
134.9892,44
134.9962,101.7
134.9998,258.2
135.0028,46368.3
135.039,904.8
135.0736,771.7
135.1167,147.8
135.1604,140.9
135.1837,183.8
135.3187,69.2
135.3516,51.6
135.3764,49.7
135.4115,532.4
135.4287,53.9
135.4352,910.7
135.5722,370.5
135.5977,60.3
135.6635,779
135.6978,100.2
135.7054,693.5
135.8702,1146.7
135.8875,119.4
135.9176,325.9
135.956,79.4
135.9774,332.5
136.0022,43.6
136.0273,63.5
136.0481,7744.9
136.0616,19.6
136.0659,97.2
136.0665,73.9
136.073,171.8
136.0755,483.2
136.1045,40.9
136.1407,64.9
136.2079,43.1
136.231,80.6
136.2603,63.7
136.3083,708.2
136.3301,130.7
136.3377,57.1
136.3602,162.3
136.3939,50.8
136.4276,125.5
136.455,43.1
136.5116,755.4
136.6463,775
136.6484,401.2
136.6831,195.2
136.6883,544.9
136.7214,112.3
136.7236,62.9
136.7319,86.2
136.7339,95.7
136.7518,349.2
136.8002,93.6
136.8088,138.2
136.8381,440.4
136.8728,40.9
136.8946,64.2
136.9279,147.4
136.9532,53.1
136.9641,111.4
136.9895,98.6
137.0199,154
137.0525,73.2
137.0599,20.5
137.0616,50
137.2222,43.7
137.2497,93.1
137.2536,17.7
137.267,75.1
137.2704,45.9
137.3186,344.4
137.3755,479.3
137.4068,94.6
137.4771,42.7
137.4959,458.8
137.5587,118.4
137.602,1118.7
137.6529,92
137.664,335
137.6931,725.2
137.7109,49.7
137.7709,218.4
137.7716,276.1
137.7853,305.1
137.8082,601.4
137.8131,344.1
137.8183,386.1
137.8209,53
137.8922,184.6
137.8974,291.5
137.9005,654
137.9043,52.1
137.9541,1084.7
137.9561,78.8
137.9794,44.5
138.0416,64.4
138.0525,8319.9
138.0623,184.7
138.0662,78.9
138.1635,50.2
138.1792,227.4
138.1797,278.7
138.183,60.4
138.1879,51.9
138.1917,46.8
138.2186,43.7
138.3229,18.1
138.391,551.9
138.3928,67.4
138.4553,49.7
138.4763,218.6
138.4784,42.9
138.483,85.1
138.5665,43.7
138.6962,57.7
138.7309,84.7
138.8307,19.5
138.8855,171.6
138.902,332.5
138.9065,2453
138.9414,896
138.9483,689.4
139.055,635.6
139.0802,205
139.1378,53.4
139.1451,712.1
139.2236,459.3
139.2719,234.2
139.28,204.8
139.2912,108.2
139.3313,139.5
139.3318,166.9
139.3324,115.2
139.3825,112.5
139.4547,77.9
139.4814,56.9
139.5499,214.7
139.5962,487.6
139.629,44.3
139.651,380.6
139.6759,156.3
139.7364,211.7
139.7756,799.8
139.7846,64.2
139.8176,17.7
139.8731,20.7
139.8804,52
139.9166,17.4
139.9214,205.1
139.9419,58
139.9445,265.1
139.9469,211.2
139.9633,307
139.9995,140.6
140.0164,1490.8
140.0236,152.8
140.0682,2426.3
140.1047,46.8
140.1097,714.7
140.1727,298
140.1915,43
140.2244,42.7
140.2338,21.7
140.2383,774.1
140.2593,45
140.2663,307.8
140.2914,358.3
140.3222,18.4
140.3373,199.9
140.4428,42.5
140.4881,202.4
140.5286,60.4
140.56,198.5
140.6232,63.3
140.6458,213.4
140.6864,756.3
140.6875,342.2
140.6908,19.5
140.6955,69.8
140.718,91.8
140.7512,105.5
140.8648,204.6
140.9035,546.7
140.9158,100
140.9246,347.4
140.9528,121.4
140.9723,100.2
140.9735,658.7
140.996,57.6
141.0004,43141.6
141.02,129.4
141.0703,494
141.1022,160.8
141.1091,185.5
141.119,48.9
141.1256,104.2
141.1339,327.6
141.1416,48.7
141.1481,42.7
141.158,260.6
141.2175,123.8
141.2255,203.2
141.2982,121.3
141.3219,103.2
141.4403,88.4
141.4504,43.3
141.5347,242.9
141.5391,96.1
141.5692,235.2
141.7303,170.6
141.7371,616.9
141.7623,68.9
141.7724,143.2
141.8057,261.8
141.862,114.3
141.8745,40.3
141.9027,66.7
141.9421,334.6
141.9578,185.8
141.9949,42
142.0038,1683.4
142.0122,17.9
142.1351,114.8
142.204,110.5
142.2155,308.7
142.2312,73
142.2361,178.1
142.245,135.7
142.2637,792
142.2665,209
142.3236,62.4
142.3736,48.2
142.3766,462.3
142.4056,51.1
142.4179,206.1
142.4221,64.6
142.4908,230.3
142.5469,162.7
142.6077,121.8
142.6251,237.9
142.7337,86.2
142.7444,48.4
142.8573,741.9
142.8982,742.8
142.9025,552.7
142.9327,78
142.9384,247.7
142.948,619.1
142.9705,115.4
142.9892,119.3
142.9941,390.8
142.9963,449
143.0047,19.9
143.0108,47.8
143.0187,250.3
143.024,50.5
143.0279,67.9
143.0306,689
143.0493,318.9
143.0729,46.4
143.0775,46.1
143.0812,570.7
143.0851,19.8
143.0954,629
143.189,72.8
143.1996,314
143.2039,264.4
143.2314,46.2
143.2445,462.8
143.297,77.6
143.3536,153.5
143.3557,685.8
143.3576,298.4
143.3613,246
143.3813,69.2
143.4247,844.6
143.4876,781.9
143.515,515.9
143.526,111.8
143.5335,42.2
143.6898,16
143.7229,53.9
143.7253,48.1
143.8203,142.6
143.8385,149.8
143.8822,62.1
143.9115,148.7
143.9385,78.2
143.9461,1044.2
143.9858,273.2
143.9892,75.3
144.0106,313.7
144.0254,84.9
144.0309,59.7
144.0329,49.9
144.0859,316.7
144.1645,164.5
144.2079,400.7
144.2094,234.6
144.2301,21.1
144.3153,111.3
144.3214,131.8
144.3286,386.4
144.3964,155.9
144.4197,104.8
144.4463,210.8
144.4751,64.3
144.5249,46.5
144.5504,661.4
144.5986,56.7
144.6054,19.1
144.6077,55.5
144.622,251.4
144.6429,97.3
144.6535,152.2
144.6576,44.8
144.6854,129.8
144.7048,318.3
144.7166,144.2
144.7309,486.6
144.7588,105.7
144.7774,143.2
144.7938,66.9
144.8277,180.7
144.834,125.4
144.8739,46.9
144.8918,138.5
144.9153,96
144.9443,130.1
144.9807,3229.2
144.9932,425.9
145.0163,18
145.0183,234.5
145.0487,63.1
145.1053,106.5
145.1781,208.2
145.2468,17
145.2848,50.2
145.2911,332.4
145.3143,59.7
145.343,372.6
145.4308,243
145.4921,41.6
145.506,71.1
145.6367,76.7
145.6465,47.6
145.6994,196.5
145.7063,597.1
145.7566,140.1
145.7736,79.4
145.8151,15.9
145.8155,15.7
145.9146,71.1
145.9568,95.1
145.9598,94.4
145.9661,106.1
145.9676,399.9
146.005,235.2
146.0123,628.7
146.016,302.5
146.0189,15734.6
146.0263,31.4
146.0596,99
146.1082,809.6
146.1104,44
146.1435,311
146.1461,357
146.211,45.8
146.2457,230.6
146.2688,73.6
146.3229,601.6
146.4477,490.6
146.4611,56.9
146.4793,43.5
146.5096,467.2
146.5316,159.4
146.5733,124.3
146.631,49.7
146.6628,17.9
146.6713,50.8
146.723,314
146.7273,229.2
146.7544,728
146.7863,59
146.8314,76.5
146.842,143.2
146.8613,64.4
146.9137,101.3
146.9241,116.5
146.9262,49.4
146.9746,20.2
146.9817,47681.1
147.0088,222.3
147.0282,56.5
147.0383,168.4
147.0764,43941
147.0904,17.6
147.1034,213.5
147.1084,49
147.1128,48145.9
147.1176,882.2
147.1282,147.6
147.1931,44.9
147.2211,45.7
147.249,422.2
147.3043,462.5
147.3609,44.2
147.3909,642.4
147.4209,72.1
147.4799,53.8
147.4829,134.2
147.5094,43.3
147.5114,328.2
147.5467,196.5
147.5482,186.3
147.5706,367.6
147.5908,300
147.6328,676.7
147.6905,48.5
147.8122,758.5
147.8711,257.3
147.9514,199
147.985,862.7
147.9923,195.2
148.0798,238.7
148.2196,788.7
148.2381,20.8
148.2807,221.6
148.3072,519.2
148.3123,19.3
148.3143,51.1
148.357,259.9
148.4969,279.3
148.5032,111
148.5321,629.2
148.5467,99.8
148.5855,218.5
148.5914,277.9
148.6986,879.2
148.7304,54.1
148.7361,725.4
148.7377,350.2
148.9169,55.5
148.9448,368.5
148.9611,1042.2
148.9727,203.5
148.9942,188.8
149.0026,83.4
149.0186,2649.3
149.0233,6183.4
149.0866,202.5
149.0964,92.7
149.1323,124.5
149.1363,645.2
149.2054,390.6
149.2116,58.8
149.2311,929.2
149.2728,53.7
149.2928,173.6
149.3053,59.5
149.3079,138.2
149.3428,490.4
149.3976,126.2
149.4494,217.3
149.4784,76
149.5829,454.5
149.6273,154.4
149.629,777.7
149.6371,54.4
149.6616,56.9
149.6649,41.5
149.6777,268.6
149.7497,100
149.8061,92.2
149.8829,604.6
149.9063,356.7
149.9227,153
149.9339,134.3
149.9928,3229.1
150.0138,4002.1
150.0271,167.8
150.0643,325.7
150.0821,41
150.0922,80.4
150.0996,226.9
150.129,124.7
150.23,221.5
150.2648,787.5
150.311,54.4
150.3428,267.3
150.3729,223.8
150.3828,387.8
150.3921,624.8
150.4079,842.1
150.4464,509.4
150.4474,476.2
150.4509,267.3
150.4579,392.1
150.4867,169.2
150.5351,197.3
150.5713,44.4
150.6211,64.7
150.6903,221.3
150.697,49.5
150.7353,19.9
150.7694,135.3
150.8209,52.3
150.8267,45
150.8419,46.4
150.8718,374.3
150.8963,171.3
150.9139,50.2
150.9335,124.3
150.9534,48.6
150.9688,64.8
150.9768,27477.9
150.9841,543.3
151.0269,183.3
151.0388,86.6
151.0478,1962.2
151.0672,152.5
151.0901,62.3
151.0979,73.5
151.1978,157.9
151.208,139.6
151.314,140.4
151.4391,112.6
151.4688,171
151.4749,72.4
151.5592,58
151.6039,111.6
151.6083,329
151.6499,159.7
151.6862,61.3
151.7374,266.8
151.7666,129.1
151.7812,64.3
151.7874,48.4
151.821,109.1
151.8533,195.6
151.862,56
151.9141,146.5
151.9507,70.2
151.9685,95
151.9802,544.1
151.9874,50
152.0221,10734.9
152.0318,3170.4
152.0342,328.7
152.0511,440.3
152.0637,43.5
152.0944,92.2
152.1124,509.2
152.1986,221.7
152.2816,69.6
152.3523,322
152.3735,429.7
152.4593,171.3
152.4782,193.4
152.558,17.3
152.5623,291.3
152.5858,51.1
152.623,46.3
152.6382,80.2
152.6443,797.1
152.6677,46.8
152.6922,46.7
152.7334,659.7
152.7833,57.9
152.8086,364.4
152.8391,278.4
152.8409,44.9
152.8856,48.7
152.9477,57.2
152.975,525.8
153.0069,194.2
153.0842,683.8
153.1605,654.3
153.2256,42.5
153.2354,58.7
153.2866,97.7
153.3203,356.1
153.3225,708
153.3305,95.7
153.3343,20
153.3407,351.7
153.3912,295.9
153.431,775.3
153.47,272.7
153.4862,48.1
153.4888,235.8
153.7088,95.4
153.7616,20.2
153.7739,125
153.7988,377.7
153.8635,18.5
153.8771,87.7
153.9005,49.1
153.9256,74.3
153.9664,200.9
153.9878,66.3
154.011,1079.2
154.0184,44.6
154.0265,1793
154.075,61.3
154.0763,70.5
154.0845,53.6
154.1216,49.5
154.125,47
154.1591,18.3
154.1787,46.2
154.2877,641
154.3092,44.5
154.3566,54.3
154.3683,70.5
154.4136,245
154.4231,198.1
154.4258,1363.9
154.4291,320.6
154.4378,120.6
154.514,230.4
154.5373,53.3
154.5402,53.7
154.5772,224.8
154.5803,258.3
154.7522,189
154.77,451.1
154.8379,149.2
154.8493,58.5
154.8509,341.6
154.876,17.1
154.8802,445.9
154.8959,151.5
154.9022,172.6
154.9126,49.9
154.9177,57.2
155.0025,86
155.0266,58.7
155.0428,2353.2
155.0539,2092.9
155.079,1115.4
155.0937,341.1
155.1875,158.2
155.2259,181.4
155.2974,46.8
155.3158,91.8
155.3338,18.9
155.4191,46.6
155.4475,162.1
155.5124,47.5
155.5601,232
155.6632,47.6
155.6662,85.3
155.7195,307.8
155.7203,310.1
155.7212,346
155.8492,48.9
155.86,173
155.8999,156.7
155.9404,17.6
155.9706,609.2
156.0048,148.3
156.0422,3094.5
156.07,709.3
156.0768,66273
156.1045,61
156.1241,234
156.209,118.4
156.2947,70.9
156.3601,17.2
156.3915,89.5
156.4342,61.8
156.4465,148.8
156.449,63.7
156.4564,75.5
156.4711,88.3
156.472,89.8
156.4908,831.5
156.5477,145.2
156.573,1344.1
156.5991,71.5
156.6609,85
156.7011,55.6
156.7233,48.2
156.8073,61.7
156.8463,45.6
156.8773,408.3
156.8878,165.7
156.9244,94.5
156.9342,74.7
156.9502,45.8
156.9618,66.9
156.9688,49.9
157.0059,1745.3
157.0379,87.7
157.0525,58.5
157.08,2384.3
157.1236,311.8
157.1386,52.1
157.2088,344.8
157.34,87.1
157.3695,47.2
157.4125,52.3
157.4618,63.4
157.479,477.9
157.4981,18.5
157.5318,45.2
157.5363,225.7
157.5568,204
157.5706,58.6
157.5927,48.2
157.6205,576.4
157.6573,63.3
157.6913,47.1
157.6944,470.2
157.7358,169.9
157.7616,128.3
157.7729,69.8
157.8312,17.9
157.8469,126.4
157.85,86
157.921,108.2
157.9427,844.3
157.9917,123.8
158.0135,130.6
158.0163,234.8
158.0271,12006.1
158.0314,311.4
158.0903,40
158.0949,330.1
158.1532,255.2
158.2224,503.2
158.2509,603.7
158.3368,93.7
158.3438,121.2
158.3654,192.8
158.3912,92.7
158.4923,106.2
158.5678,296.6
158.5809,785.9
158.5925,95.1
158.6373,51.6
158.6397,274.2
158.6806,448.6
158.6901,176.2
158.7723,417.2
158.8001,75.6
158.813,121.6
158.842,18.2
158.8542,146.5
158.8957,16.9
158.9152,386.5
158.9219,83.3
158.9641,4561.1
158.9881,48.4
158.9965,10088
159.0112,67
159.0217,56
159.0304,112
159.0826,18.5
159.1073,143.6
159.1168,45.5
159.132,126.9
159.1659,348.6
159.2101,390.3
159.2407,153.5
159.2629,61.2
159.3358,81.9
159.3418,595.7
159.367,74.1
159.3771,71.5
159.3918,298.9
159.4281,139.6
159.4696,91.5
159.5397,242.6
159.5446,85.8
159.5653,419.5
159.6573,71.9
159.6638,628.1
159.6923,78
159.6964,18.8
159.8107,122.6
159.8831,65.3
160.0096,499.7
160.0177,17
160.0227,74.9
160.0281,48
160.0346,10370.4
160.0403,42.3
160.0605,140831.5
160.1095,272.7
160.1473,278.8
160.2058,74.8
160.2255,370.3
160.237,50.7
160.2861,152.3
160.313,100.2
160.3497,258.8
160.3545,391.8
160.3726,67.8
160.4061,582
160.4183,138.1
160.4302,46.3
160.4523,117.1
160.4767,48.8
160.5157,313.3
160.5475,199.9
160.5508,710.9
160.5638,105.9
160.5792,334.5
160.5846,253.3
160.6398,396.6
160.7417,476.8
160.7818,179.3
160.7876,95.4
160.9025,373.5
160.9373,139.2
160.9479,64.8
160.9682,75.1
160.9778,581.4
160.983,323.4
161.0242,183.3
161.0269,83.7
161.0638,6664.6
161.1234,139.5
161.1285,4464.5
161.1326,509.9
161.1451,73.5
161.2156,766.6
161.2328,347.1
161.2671,401.7
161.3187,46.8
161.3658,64.9
161.4255,69.4
161.5228,63.8
161.6048,67.4
161.7278,82.3
161.7445,258
161.776,121.4
161.7828,49
161.7932,45.1
161.829,416.4
161.8509,19.4
161.8865,232.9
161.9383,955.3
161.9628,86.4
162.0192,64
162.029,371.5
162.0313,571
162.0502,10539.6
162.0581,49.9
162.0646,275.7
162.0775,441.7
162.0876,306.3
162.2687,105.6
162.2718,646.1
162.2982,74.1
162.3642,17.3
162.4271,173.7
162.547,534.7
162.6836,798.2
162.7668,18.6
162.9557,1080.5
162.9605,213.6
162.9763,794.3
163.0076,71.4
163.0159,142.2
163.0322,41.6
163.0743,162.2
163.1399,100.2
163.1717,43.7
163.2517,129.6
163.4243,60.4
163.4452,47.7
163.449,67.7
163.455,76.3
163.4835,118.1
163.484,119
163.4973,340.4
163.5238,194.7
163.5251,242.8
163.5362,54
163.6423,142.5
163.6452,370.7
163.6487,289.2
163.6509,204
163.6567,64.2
163.7065,133.7
163.7109,331.3
163.8116,47.8
163.8266,73.8
163.9501,810.4
164.0295,8317.9
164.0408,91.7
164.1033,74.4
164.1091,297.2
164.111,238.3
164.1198,117.6
164.1653,70
164.1956,40
164.2146,46.9
164.2331,96.7
164.2372,726.8
164.2758,138
164.3635,55.9
164.3851,18
164.4335,17.7
164.6517,374.4
164.7045,73.8
164.7064,55.2
164.7132,227.3
164.7254,75.4
164.7452,166.9
164.8313,93.1
164.8409,53.3
164.866,150.9
164.8752,18.8
164.887,127.5
164.9205,1868.9
164.9301,9498.2
164.9352,517.6
164.9694,620.9
164.9846,96.4
164.9926,1664.3
164.9998,155.2
165.0115,150.6
165.0259,190.7
165.0484,186.2
165.0894,49.2
165.0911,100.6
165.1188,181.7
165.238,241.1
165.249,130.5
165.2665,18
165.2735,104.8
165.2838,59.1
165.3602,76.7
165.3785,131.8
165.43,858.2
165.455,270.7
165.4742,267.9
165.4761,249.4
165.5341,325
165.5675,64
165.6619,91
165.6802,769
165.7744,88.7
165.7989,17.4
165.8016,317.5
165.8238,118.1
165.9566,142.6
165.9667,600.6
165.979,96.4
165.9879,2362.1
165.995,214.9
166.0061,18.8
166.026,455.3
166.0839,699.8
166.1703,1032.8
166.1976,110
166.2345,51.6
166.2397,95
166.2468,639.1
166.2563,444.2
166.2952,755.7
166.308,330.8
166.3439,233.9
166.3566,56.2
166.4626,431.3
166.5119,46.6
166.5165,69.7
166.5587,208.4
166.7476,628.5
166.7916,46.7
166.8581,52.1
166.8644,635.2
166.9222,107.1
166.9508,10417.2
166.9629,88.5
166.9748,234.5
166.9771,137.5
166.9997,22.6
167.0115,75.5
167.0218,9231.8
167.1126,69.9
167.1378,119.5
167.1512,676.2
167.2223,423.1
167.3109,21.3
167.3558,45.6
167.3772,71.5
167.391,59.5
167.4935,210.1
167.5024,51.3
167.5236,42.6
167.5539,97.8
167.5728,318.5
167.621,87.1
167.6459,119
167.7685,111.7
167.7754,249.5
167.7941,62.1
167.8976,62
167.9081,48.2
167.9945,814.7
168.006,141.8
168.0085,613.1
168.0161,207.9
168.025,401.6
168.0348,126.6
168.0402,386.9
168.0497,126
168.0579,439.8
168.0729,422.2
168.1665,242.2
168.1705,50
168.2225,64.9
168.2516,45.5
168.4105,49.3
168.4244,145.5
168.4568,53.3
168.5912,251.9
168.6226,112.5
168.647,51
168.6704,79.4
168.6714,79
168.7144,82.3
168.7581,387.4
168.7633,84.3
168.8494,63.2
168.8754,346.9
168.8793,69.7
168.949,546.3
168.9827,99.1
169.0035,174.3
169.0168,257.5
169.0425,97
169.0434,105.8
169.0444,100.8
169.0524,73.1
169.0584,85684.2
169.0644,104.4
169.0749,455.7
169.0804,69.9
169.0864,66.7
169.0949,7885.3
169.1361,332.4
169.1435,268.2
169.3158,230.6
169.456,115.5
169.4808,102.6
169.509,42
169.5284,48.8
169.5437,71
169.5949,133.3
169.6976,171.5
169.6997,116.4
169.7207,315.6
169.782,141.8
169.7881,863.1
169.844,124.6
169.8679,104.8
169.9859,410.8
170.0127,289.8
170.0267,21.8
170.0329,2094.4
170.0618,1606.3
170.0834,78.2
170.0925,3729.5
170.1266,49.5
170.1607,199.3
170.1808,51.5
170.2278,524
170.2338,18.6
170.2399,288.1
170.3499,48.7
170.3583,62.1
170.3713,40.6
170.3796,61.8
170.4838,295.2
170.529,51.1
170.5466,197.1
170.5584,409.2
170.6092,18.1
170.618,612.9
170.6529,51.1
170.6663,154.3
170.7211,175.6
170.8545,2497.2
170.8569,297.7
170.8747,46.5
170.8941,67.6
170.9519,132.4
170.9628,197.7
170.995,78.8
170.9981,18.9
171.003,152.5
171.0167,2261
171.0216,894
171.0281,162.8
171.0536,1482.4
171.1343,185.7
171.2004,301.9
171.2538,104.9
171.2863,145.1
171.3285,88.4
171.3793,43.4
171.3984,148.1
171.4809,251.8
171.5353,257.4
171.5629,105
171.6027,93.3
171.7536,368.6
171.8122,426.1
171.9229,112.9
171.9322,196.4
171.9722,167.3
172.0283,359.2
172.1005,84.9
172.153,40.1
172.1734,65.7
172.1974,718.1
172.2175,708.3
172.2554,72.4
172.2698,650.8
172.3361,175
172.3434,156.4
172.3622,46.1
172.4608,193.9
172.5236,68.2
172.5509,138.9
172.5635,298.5
172.5964,380.3
172.636,60
172.6402,196
172.6542,49.3
172.6963,68
172.7361,52.1
172.7646,257.9
172.7761,319
172.7805,470.1
172.7992,47
172.8284,70.6
172.8404,120.2
172.8516,1480
172.8788,46.7
172.9585,173.7
172.9755,176.8
173.0268,1129.2
173.0373,461.7
173.0495,46.8
173.0778,139.1
173.1314,57.3
173.193,229.3
173.2146,17.9
173.2246,39.1
173.277,59.8
173.2942,269.8
173.35,733.3
173.4976,134.4
173.5381,227.7
173.6032,49.7
173.6225,341.8
173.6979,775.9
173.7021,438.2
173.7045,280.1
173.7114,59.1
173.714,70
173.7175,1206.2
173.7192,820.8
173.944,136.2
173.9514,48.1
173.9848,41
173.9903,48.2
174.0006,138.2
174.022,346.7
174.0303,24.1
174.1158,183.8
174.1419,283.9
174.1668,42.3
174.187,285.5
174.2017,253.1
174.2307,123.9
174.2399,141.4
174.2514,61.7
174.2768,315
174.3226,61.4
174.3285,695.4
174.4444,77.2
174.4534,46.2
174.4685,49.9
174.5278,63.8
174.5385,113.4
174.6571,158.7
174.6636,43.4
174.701,108.9
174.846,126.4
174.8879,70.3
174.8978,94.8
174.9003,77.3
174.9422,147.8
175.0055,18.8
175.0154,662.3
175.0343,7497.7
175.0455,3212.2
175.119,143257
175.1438,540.1
175.1572,601.8
175.1881,148.4
175.2189,42
175.2356,171.3
175.2517,70
175.2808,662.3
175.3246,44.7
175.3271,750
175.3346,224.9
175.4453,18
175.4624,198.8
175.5541,52.7
175.5747,320
175.6247,176.9
175.6291,488.7
175.6345,501.7
175.7141,79.1
175.8571,190.8
175.9187,151.6
175.9336,118.1
175.9513,138.8
175.9981,108.9
176.0086,3587
176.0295,438.2
176.0315,366.2
176.066,17477.7
176.0749,178.5
176.1029,1543.7
176.1097,46.9
176.1224,4353.5
176.1504,162.4
176.1864,175.4
176.2967,138.8
176.304,152.1
176.3702,135.2
176.3794,212.7
176.4591,68.4
176.5302,240
176.5509,18.5
176.6124,284.6
176.6174,161.6
176.7136,52.3
176.7213,239
176.7325,340.6
176.8608,608.3
176.8786,182.2
176.9126,51.5
176.9363,210.5
176.9427,181.5
176.9692,53.1
176.9968,219.7
177.0248,1445.3
177.0612,4923.2
177.0897,611.4
177.0934,349.2
177.1413,88.6
177.3869,48.3
177.4709,128.2
177.4859,505.8
177.4915,66.6
177.5023,233.9
177.5109,103.9
177.6014,207.3
177.6031,86.4
177.6935,87.7
177.8217,469.5
177.8604,168.8
177.9057,42.9
177.9172,417.6
177.9713,39.8
177.9888,151.4
178.0088,10250.1
178.0157,23.9
178.0243,5667.8
178.0374,62.8
178.0588,13252.2
178.1817,42.4
178.183,45.2
178.1859,95
178.2362,147.3
178.2522,152.3
178.2639,202.6
178.2857,327.1
178.4215,51.4
178.5252,291.1
178.6156,174.6
178.6326,81.5
178.7212,364.8
178.8023,161
178.8877,152.8
178.9141,354.2
178.9642,48.4
178.979,19.2
179.0016,371.4
179.0328,83.6
179.0564,66.2
179.0646,20.5
179.164,144.7
179.1836,211.7
179.1863,148.2
179.1938,660.5
179.2067,53.9
179.2202,683.1
179.2392,78.9
179.317,95.5
179.346,427.2
179.3765,59
179.3951,106.7
179.4352,58.7
179.4791,963.2
179.5406,211.6
179.5546,68.7
179.5693,67.9
179.5755,633.6
179.7441,55
179.829,17.8
180.0035,5898.5
180.0119,670.5
180.0295,92.1
180.0731,77.7
180.0814,66.5
180.122,68.2
180.1531,110.3
180.1956,63.7
180.2287,18.9
180.3053,226.1
180.3614,194.1
180.3656,18.6
180.3872,349
180.432,44.8
180.54,201
180.5577,191.9
180.629,385.5
180.6514,53.6
180.7096,266
180.793,86.1
180.8531,90.2
180.8589,619.4
180.8882,41.8
180.8946,920.6
180.9014,48.1
180.9041,4884.9
181.0091,250.3
181.0159,49.5
181.0274,137.1
181.0648,4238.4
181.0949,141.6
181.1144,52.2
181.1399,457.3
181.2022,114.4
181.2886,20.6
181.3064,53.7
181.3367,66.5
181.3457,258.9
181.3667,298.7
181.3803,189.8
181.4018,132.7
181.4199,792.5
181.5528,132.9
181.5625,56.4
181.6142,51.6
181.6462,64.7
181.6951,111.9
181.7425,324.1
181.7544,64
181.7738,201.2
181.8148,275.5
181.842,65
181.8645,17.5
181.9513,71.2
182.0425,33042.7
182.0577,722.8
182.0638,63.1
182.1034,196
182.1299,324.2
182.1608,18.5
182.1847,63.3
182.223,317.1
182.2484,118.3
182.2523,68.6
182.2705,475.6
182.4346,64.5
182.7055,128.9
182.772,50
182.9025,151.6
182.9885,359.5
183.0064,116.3
183.0447,345.9
183.1504,138.9
183.1558,45.9
183.2203,61.5
183.2221,78.3
183.2371,56.4
183.2683,151.1
183.2868,349.9
183.3433,18.6
183.388,58.9
183.4167,42.2
183.4356,188.4
183.5151,183
183.5661,435.2
183.5847,82.8
183.7415,140.5
183.7648,191.9
183.8045,189.5
183.8265,49.7
183.8407,810.7
183.8482,100.1
183.8489,96.8
183.8653,77.4
183.8916,950.8
183.9038,123.2
183.9182,57.2
183.9442,679.4
183.9648,194.8
183.9933,90.1
184.065,101
184.0734,1738758.5
184.0944,675.3
184.1073,312.7
184.1095,218.5
184.1696,52.2
184.1821,313.1
184.3189,50.8
184.3324,882
184.3545,72.6
184.3627,57.8
184.4002,62.2
184.4279,48.3
184.4992,147.7
184.5015,152.4
184.5716,115.1
184.6408,261.4
184.6612,55
184.6926,364.1
184.7076,115.5
184.7107,374.7
184.746,51.7
184.8949,96
184.9114,50
184.9297,23.9
184.9553,828.7
185.0324,104469.6
185.0373,398.2
185.0692,5586.3
185.0768,74362.7
185.0801,67.7
185.0924,111.8
185.2529,45.9
185.2628,624.8
185.3262,25.5
185.3288,146.6
185.4687,229.9
185.4821,43.4
185.4937,79.2
185.5753,97.8
185.5823,62.5
185.6076,58.5
185.6553,217.7
185.6828,484.7
185.6974,335.9
185.7821,195.9
185.8137,292
185.8202,88.1
185.8583,377
185.8623,123.8
185.8874,162.1
185.8916,17.6
185.8948,384.7
185.928,181
185.9443,138.6
185.9476,280.7
185.9697,37.8
186.0359,1288
186.0452,280.6
186.0777,8542.8
186.1259,45.4
186.1583,553.7
186.202,51.5
186.248,103.5
186.2553,137.8
186.3167,130.9
186.321,295.6
186.4211,681.5
186.4774,63.5
186.487,83.9
186.5677,153.1
186.5968,569.4
186.6285,175.9
186.6489,533.4
186.689,332.5
186.7083,117.8
186.7588,327.5
186.782,55.5
186.8299,388.8
186.9306,18.1
187.0014,202.2
187.0305,4675.2
187.0439,215.5
187.053,4516
187.0579,2023.6
187.0715,778.9
187.0747,134
187.1076,363.8
187.1777,54.4
187.2226,704.4
187.2349,56.5
187.2981,22.4
187.3052,200.9
187.3086,63.8
187.3394,116.6
187.3545,73.2
187.3641,188.9
187.3714,311.6
187.4379,79.8
187.4815,123.9
187.5389,93.6
187.5507,856.2
187.6179,228.3
187.6942,47.1
187.8539,123.6
187.8682,272.3
188.005,351
188.0566,57.9
188.0865,42.5
188.0982,95.6
188.1327,60.2
188.1496,67.7
188.18,334.5
188.2321,155.5
188.2465,158.7
188.3038,77.9
188.3141,40.5
188.3204,313.8
188.379,89.5
188.4328,56.5
188.4638,737.1
188.5481,86
188.6675,745.5
188.6891,19.8
188.7318,18.6
188.7875,115.6
188.8256,165.9
188.8416,133
188.8583,15.7
188.9288,91.9
188.9543,215.6
189.0025,57.3
189.0414,147.3
189.0612,2214.6
189.0687,1171.9
189.0871,3269.2
189.1205,18.2
189.1233,415.6
189.2247,108.2
189.2878,125.8
189.3233,61
189.3903,43.1
189.3963,166.3
189.4336,79.2
189.4437,92.1
189.5401,45.4
189.5944,45.9
189.6653,495.4
189.7856,803.1
189.7894,117.5
189.8655,16.6
190.0189,65
190.1266,129.2
190.1574,57.4
190.2345,202.9
190.3036,52.9
190.3329,131.2
190.3385,100.7
190.3447,43.2
190.3593,227.3
190.3736,162.2
190.4155,361.2
190.4686,88.9
190.5866,90.5
190.6077,373.8
190.6961,253.9
190.755,49.1
190.7583,43.5
190.784,320.8
190.8007,678.1
190.8624,46.7
190.8674,218.9
190.8726,81.8
190.8841,228.4
190.9317,165
190.951,56.5
191.0083,5299
191.0405,59854.2
191.0512,313.9
191.0769,12780.3
191.0834,356.6
191.1363,820.3
191.1529,46.2
191.1878,306.3
191.198,157.9
191.2181,408
191.2299,103.9
191.2806,97.5
191.3393,710.1
191.4501,145.9
191.4763,109.8
191.5627,63.2
191.602,17.8
191.664,64.3
191.7118,809.3
191.7205,290.9
191.8942,186.4
192.04,11599.2
192.0438,929.8
192.0805,447.9
192.2103,57.3
192.2596,49.1
192.2793,74.1
192.4753,19.5
192.4929,77.1
192.5179,427.5
192.5222,50.4
192.5642,197
192.7356,98.6
192.7569,63.3
192.8051,215.3
192.8612,161.2
192.8675,46.8
192.9015,146.2
192.9798,540.3
192.9988,1195.9
193.0134,289.4
193.0351,1265.6
193.0601,98
193.0812,82.8
193.0838,114.4
193.1247,88
193.1409,273.3
193.2064,377.3
193.2116,47.4
193.2491,52.9
193.2784,114.5
193.3412,54.7
193.3781,867
193.3886,156.7
193.4284,119.9
193.4329,346.9
193.478,378.1
193.4834,270.3
193.5365,116.6
193.6334,128.7
193.6539,46.8
193.7765,18.1
193.8213,55.3
193.8429,395.9
193.8918,53.6
193.9803,161.2
193.9854,109.6
194.0048,850.8
194.0206,476.6
194.0328,8122
194.056,930.1
194.1539,71.5
194.1802,309.7
194.2167,51.6
194.2404,348
194.266,541
194.3458,573.6
194.695,68.1
194.7474,318.9
194.7738,112.3
194.9833,139.2
195.0069,179.6
195.0116,18.5
195.0218,265.3
195.0314,22.3
195.1542,684.9
195.1572,48.9
195.1754,795.2
195.1935,94.7
195.2054,189.9
195.2461,419.9
195.35,326.1
195.435,19.8
195.4695,153.5
195.495,665.3
195.6963,76.5
195.77,726.2
195.8594,352.5
195.9144,217.6
196.0273,83.9
196.0793,267.6
196.1696,551.2
196.1728,481.8
196.2046,438.2
196.2174,474.1
196.2941,51.2
196.321,302.6
196.3376,21.6
196.3626,132.8
196.4362,889.8
196.5247,657.6
196.6176,299
196.6298,70
196.6603,253.4
196.6794,50.4
196.7368,72.5
196.7792,212
196.8168,486.4
196.8652,4926.2
196.8781,997.9
196.888,367.1
196.9326,41.8
196.9507,184.6
196.958,757.3
196.9724,136.2
196.9749,353.7
197.0231,73
197.0374,418.4
197.0504,793.8
197.101,2268.6
197.1731,25.2
197.3278,94.4
197.4248,389.8
197.4282,69.9
197.4546,97.2
197.4705,404
197.5148,137.2
197.5332,43.7
197.5364,73.2
197.6376,344.4
197.6415,121.1
197.7246,592.8
197.7473,78.5
197.7804,43.5
197.9009,157.1
197.9435,42.8
198.0055,298.2
198.0196,43.2
198.0736,240.9
198.085,14751.2
198.0891,249.2
198.1684,86.3
198.1854,11750.5
198.2772,123.1
198.3072,90.5
198.3637,907
198.4545,78.9
198.6778,744.9
198.7214,118.8
198.7774,395.5
198.802,120.5
198.8503,21.7
198.8623,5500
198.9518,331.2
198.9557,47.3
198.9884,75.7
199.0166,1554.8
199.0212,353.5
199.0363,333.4
199.052,141.9
199.0537,126.9
199.0687,149.5
199.0756,846.3
199.0851,417.6
199.1295,69.2
199.1674,208.3
199.1889,512.6
199.2184,154.5
199.2639,53
199.2856,158
199.3904,19.6
199.5321,430
199.533,384.2
199.575,47.3
199.7169,273.8
199.7275,90.3
199.7364,237.2
199.7391,104
199.7828,134.2
199.8491,95.5
199.9571,111.3
199.9908,22043.9
200.0409,6859.7
200.0877,77.5
200.0939,671.5
200.1171,143.6
200.1394,265
200.1829,54.9
200.1937,6520.3
200.2591,21.5
200.2791,361.7
200.3077,46.4
200.3191,408.1
200.3475,276.8
200.3625,45.4
200.4019,97.9
200.405,548.3
200.5272,62
200.8202,107.7
200.8309,64
200.8594,570.8
200.867,43
200.8852,862.7
200.8943,211.1
200.9316,59.6
200.9478,105.8
200.9721,201.2
201.002,476.1
201.0052,46.1
201.0127,513.7
201.0316,90
201.0558,149.2
201.0873,63.1
201.2006,47.1
201.2395,47.4
201.2728,173
201.3441,196.2
201.3592,64.5
201.4013,116.7
201.4698,115.5
201.4953,118.6
201.5569,53.5
201.6072,452.4
201.7633,619
201.7919,349.8
201.8489,331.1
201.8651,38.1
201.9909,61.1
201.9956,54.2
202.0161,123.9
202.0199,362
202.0546,58.1
202.0641,155.8
202.0994,133.4
202.2463,519.7
202.261,106
202.2653,442.3
202.3573,50.4
202.381,888.8
202.4506,120.7
202.4943,82.6
202.5019,146.4
202.5139,140.1
202.55,14916.3
202.5539,2168.6
202.5568,176.2
202.5998,196.6
202.6329,240.4
202.8864,89.1
202.8951,22.1
203.0318,995.4
203.0352,463.9
203.0528,1515206.9
203.0768,6794.6
203.1028,283.6
203.2801,254.2
203.3537,467.5
203.4704,53.1
203.4993,166.6
203.5045,205
203.5815,440.1
203.588,281.2
203.6104,66.3
203.7334,43.4
203.7571,41.3
203.9481,229.9
203.9938,221.7
204.0245,51161.9
204.032,35.6
204.0424,363.7
204.0561,86222.8
204.0634,993.4
204.1144,139.9
204.1888,38.7
204.2571,69.7
204.2761,131.6
204.2818,138.8
204.3277,760.7
204.3349,143.5
204.3376,287.1
204.3499,77.8
204.366,54.1
204.3829,109.5
204.5827,51.1
204.6552,155.1
204.8072,48.5
204.8316,343.5
204.8486,65.4
204.8888,58.4
204.9151,86.3
205.0038,142
205.0461,386.9
205.0571,11918.1
205.0838,59.2
205.0969,190.2
205.1784,141.5
205.3428,110.3
205.4417,91
205.4895,137.9
205.5062,43.8
205.558,66.6
205.5835,148.1
205.6205,64.9
205.6372,18.4
205.6816,37.1
205.739,704.1
205.7636,221.5
205.8512,75.8
205.9449,42.7
205.981,809.5
206.0264,23.1
206.0477,99.5
206.0547,777.7
206.0968,46.7
206.1069,71.2
206.1824,113.9
206.2448,17.6
206.361,93.6
206.4071,21.4
206.4649,260
206.4961,82.3
206.5098,59.2
206.5958,20.7
206.6185,497.8
206.6417,52
206.7113,53.8
206.7346,165.5
206.7992,165.6
206.8777,222.3
206.8879,22.4
206.8942,15268.9
206.9015,96.9
206.917,98.2
206.9231,350.5
206.9822,1871
206.9931,117.7
206.9979,104.4
207.0144,45020.8
207.0248,23.4
207.0316,34.8
207.0442,1727.5
207.0509,6220.7
207.0583,115.1
207.0733,311.5
207.124,585.2
207.2692,39.7
207.2981,376.4
207.3178,452.4
207.3691,309.9
207.611,47.5
207.6881,66
207.7154,23.6
207.7553,223.8
207.7841,723.9
207.8441,20.5
207.8623,302.9
207.9512,70.2
207.9908,1621.7
208.0042,218.4
208.0139,1368.2
208.0432,32.4
208.0576,205.6
208.0667,155.7
208.0953,96.6
208.1241,83
208.2055,86.1
208.2235,39.3
208.3158,119.2
208.3691,98
208.3727,64.1
208.5151,70.8
208.8202,331.1
208.8833,185.1
208.8912,9011.8
208.913,692.9
208.9206,52.1
208.953,494
208.9831,63.4
209.0014,347.4
209.0123,801.6
209.0197,275.5
209.0225,65.5
209.0452,191
209.0929,22.3
209.2121,346.6
209.247,72.1
209.2996,54.7
209.3333,136.3
209.5135,176.5
209.5991,662
209.9677,162.7
210.6321,691
210.674,79.2
210.6982,115.3
210.8102,406.6
210.8185,358.7
210.8524,130.6
210.8886,552.5
210.9196,384.5
210.9481,52.9
210.9723,681.5
210.9879,700.1
211.037,87.2
211.0567,249.3
211.069,971.9
211.1401,689
211.1703,105.8
211.2324,14464.9
211.2369,27450.2
211.2414,32718.8
211.2439,30163.5
211.3034,55.8
211.4607,50.7
211.4887,318.2
211.634,228.5
211.6374,57.2
211.6689,176.6
211.6891,169.2
211.7871,50.5
211.9452,21.4
212.0246,706.3
212.0423,19.6
212.0742,75.5
212.1123,193.6
212.1513,426.7
212.1943,48.6
212.2022,57.8
212.3391,163
212.3427,323.9
212.3748,216.4
212.3846,57.9
212.3906,486.3
212.4274,51.3
212.5215,733.3
212.7569,415.2
212.8091,176.2
212.8128,651.6
212.8392,1837.2
212.864,63.8
212.964,19.9
212.9914,389.2
213.0144,97.8
213.0323,2019.7
213.0549,348.2
213.0692,47.7
213.0749,1271.1
213.22,662.6
213.237,385.1
213.2534,67.7
213.2691,120.2
213.3262,427.4
213.3321,144.7
213.3618,385.9
213.4169,69.5
213.6157,342.4
213.657,98.3
213.7297,701.1
213.734,258.2
213.7846,50.1
213.8079,45.3
213.9622,543.9
213.9848,144.3
213.9888,128.8
214.0325,548
214.0401,164.1
214.0508,53.4
214.0591,19048.2
214.0688,44.8
214.0779,325.5
214.0899,2498.7
214.1567,316.5
214.1638,444
214.2371,112.8
214.303,230.7
214.3918,51
214.4518,401.1
214.5143,20.1
214.5306,144.6
214.6393,42.2
214.6683,63.5
214.7515,325.9
214.754,165
214.8363,1925.3
214.8743,159.9
214.8926,294.3
214.9101,159.2
214.9177,37.8
214.9639,18.1
215.0327,149.6
215.0405,130.5
215.048,3817.2
215.0932,93.6
215.1387,82.3
215.4103,255.6
215.4198,160.9
215.5268,63.7
215.5758,200.3
215.6379,64.7
215.6456,42.4
215.6624,20.1
215.7047,61.3
215.7226,41.1
215.785,126.3
215.8453,81.9
216.0148,5508.9
216.0348,136.9
216.4454,106.6
216.4578,79.5
216.4893,101.3
216.5505,732.1
216.6874,45.3
216.7398,45.7
216.85,211.4
216.9229,36886.3
216.9502,51.5
216.961,117.3
216.996,68.8
217.0271,1256
217.0437,40.8
217.0487,43.2
217.0554,204.5
217.0817,62.4
217.1345,773
217.3004,228.7
217.3938,98.9
217.5237,57.7
217.5529,140.8
217.6511,56.4
217.7077,71.2
217.7318,229.7
217.7443,347.5
217.8738,349.4
217.9951,18.7
218.1188,79
218.1519,55.5
218.252,476.5
218.3311,41.5
218.3655,58.4
218.4605,236.1
218.4914,72.6
218.591,692.7
218.6777,103.8
218.7472,737.9
218.8205,352.7
218.8599,71.8
218.8673,39.8
218.92,7816.2
218.9357,789.1
219.0178,555.8
219.0267,1735369.6
219.0316,1472.7
219.083,5880.7
219.0963,317
219.1289,45.4
219.2179,250
219.2759,201
219.2958,68.8
219.3288,175.7
219.5727,62.7
219.6826,498.1
219.7612,206.4
219.8616,167.5
219.9909,47.8
219.9985,741.6
220.0301,95725.2
220.0374,1320.2
220.0672,3037.8
220.1674,344.7
220.236,402.4
220.2561,231.5
220.3326,559
220.3941,143.5
220.4234,51.1
220.4273,223.4
220.4778,58
220.5213,257.4
220.5252,237.5
220.6589,97.1
220.7501,277.1
220.8912,49.4
220.9346,763.4
220.9985,62.3
221.0249,104379.6
221.031,13324.2
221.051,379.1
221.0675,656.4
221.0844,320.5
221.0881,59.6
221.1338,93.9
221.1573,611
221.1775,256.1
221.3214,68.5
221.4212,156.8
221.5236,619.3
221.5477,20.4
221.6844,351.5
221.8069,160.5
221.876,91.4
221.8813,71.3
221.9029,127
221.9564,72.3
222.0283,2867
222.0873,45.9
222.1526,17.4
222.3411,23.1
222.3482,71.1
222.4178,527.2
222.4424,627.8
222.4598,225.1
222.6706,21.1
222.8461,121.8
222.8681,11862
222.8887,945.2
222.8989,221
222.954,1840.2
222.9883,5845.5
223.0039,192.7
223.0544,620.5
223.3386,77.9
223.3988,115.3
223.4209,19.2
223.5256,142.2
223.6714,40.4
223.7587,229.4
223.9528,21.4
223.9713,189.6
224.0879,66
224.1098,745.6
224.1487,57.2
224.4161,264.6
224.4422,478.1
224.5139,569.2
224.5473,284.6
224.5637,49.6
224.5666,43.4
224.7288,325.4
224.7472,738.5
224.8261,255.5
224.8561,139.7
224.865,5961.2
224.8765,374.4
224.9275,29.7
224.9353,72.6
224.9673,47.7
225.0236,22.4
225.0549,25677.4
225.08,901
225.0847,441.4
225.1345,215.1
225.1905,142.5
225.2012,575.3
225.2135,43.7
225.2991,21.1
225.3365,18.9
225.3588,210.2
225.3893,141.2
225.4558,782.5
225.4976,158
225.5068,17.2
225.559,202.3
225.6884,19.3
225.9524,26.6
225.9587,657.3
226.0024,235.3
226.0065,1135.7
226.0244,6077
226.0455,3033.3
226.0582,84.2
226.102,403.4
226.1816,96.2
226.2653,51.2
226.2952,60.9
226.3,199.2
226.3031,54.4
226.3338,904.9
226.3783,18.2
226.3992,153.9
226.4407,481.4
226.5907,49.2
226.6829,63.5
226.7324,757.6
226.8201,640.9
226.8757,133.6
226.9517,10474.6
226.9776,380.6
227.0003,218.1
227.034,846
227.0793,4729.3
227.0867,65.8
227.0959,61.3
227.1113,675.8
227.1346,50.9
227.1515,45.4
227.2672,358.8
227.2757,47
227.3936,169.5
227.4415,92.3
227.4633,65.2
227.4828,87.9
227.4922,51.9
227.7436,79.7
227.8693,95.6
227.9272,137.6
227.9462,53.8
227.9616,51.5
227.9828,761.3
228,70
228.0062,499.6
228.0561,581.2
228.0715,773.7
228.0825,195.7
228.1496,743.1
228.2473,51.1
228.268,48.2
228.2725,337.4
228.4213,302.6
228.4501,86.3
228.5466,49.6
228.5958,113.2
228.6045,109.1
228.7141,381.8
228.728,430.1
228.7581,159.7
228.7595,356.8
228.7606,338.2
228.7762,261
228.8132,593.6
228.9925,23.9
228.998,142
229.0021,53.7
229.0502,409.8
229.1223,333
229.1329,108.6
229.1975,147.5
229.2172,498.4
229.233,48.7
229.2502,22.1
229.3162,85.1
229.3263,107.2
229.4008,22.4
229.4263,150.9
229.5021,43.4
229.5812,172.1
229.6049,46.2
229.8077,48.9
229.8197,48.4
229.8328,44.6
229.9035,768.8
229.9571,1255.3
229.97,75.7
229.9854,871.9
229.9987,319.7
230.0061,145
230.0333,56.2
230.0477,365.9
230.2238,650.5
230.2435,349.9
230.2591,275.7
230.3197,106.4
230.3446,47.5
230.3485,79.7
230.3683,76.1
230.4532,163.7
230.477,504.2
230.5963,161.9
230.6102,538.4
230.6498,730.9
230.7297,92.1
230.8105,747
230.8599,751.6
230.8902,215.3
230.9489,144.4
230.9602,42.9
231.0559,715.7
231.0856,437.5
231.1342,45.7
231.1549,521.7
231.1971,90.9
231.2083,50.6
231.2302,86
231.2788,291.1
231.2979,50.3
231.3202,19.3
231.379,289.7
231.3862,391.6
231.4526,505.3
231.5461,119.4
231.6074,222.5
231.7147,108.8
231.7743,88.2
231.9527,37.5
231.9578,21.2
231.973,20.8
231.9957,67.7
232.0071,51.8
232.0762,1007.6
232.0927,45.7
232.1253,128.3
232.1485,150.6
232.4868,56.9
232.558,237.3
232.565,310.9
232.702,707.3
232.7408,782
232.7528,48.7
232.8683,51.1
232.8969,26307.3
232.9857,497.1
232.9916,48.7
233.0094,45.3
233.051,11267.5
233.0585,2306.7
233.0871,52.2
233.4026,136.4
233.4127,521.9
233.4478,325.2
233.453,319.2
233.4624,421.9
233.4793,795.5
233.5217,425.9
233.5413,17.8
233.6197,44.5
233.6624,155.2
233.7624,197.5
233.7768,74.8
233.7929,46.2
233.8184,104.5
233.8625,123.2
233.9107,143.9
233.9139,610.1
234.0304,164.4
234.0767,84.8
234.1019,70.7
234.1267,287
234.1575,197.3
234.2046,142.2
234.3139,17.3
234.471,116.5
234.6423,102.5
234.6845,410.1
234.6932,69.9
234.7458,49.5
234.7718,65.3
234.7851,404.4
234.878,21
234.8939,7668
234.9025,45.6
234.9118,26.5
234.9815,781.5
235.0023,19.5
235.0572,2843.6
235.0669,1809.8
235.0927,5326.9
235.1179,486.6
235.2243,100.1
235.2667,107.8
235.3084,513.8
235.388,334.5
235.4105,132
235.4601,739.5
235.5324,58
235.55,70.4
235.6524,215.8
236.0151,97.4
236.0221,857.8
236.0412,1675.6
236.0718,53446.8
236.1864,688.9
236.3024,49.4
236.3393,154.8
236.3866,24.3
236.5385,20.3
236.8788,20.9
236.9075,24.5
236.9697,101.5
237.0299,648.1
237.0713,55.9
237.0752,1347.6
237.0799,90.9
237.0931,79.4
237.2192,103.1
237.2753,18.7
237.3136,802.5
237.3178,323.6
237.6747,246.9
237.6904,501.5
237.7687,199.9
237.856,125.7
237.9065,231.7
238.0024,71.8
238.0676,278.4
238.1297,834.6
238.1355,61.5
238.1611,698.8
238.347,225.8
238.4572,79.4
238.4887,562.1
238.5264,754.4
238.6248,153.3
238.6274,731.4
238.6642,482
238.7597,792.3
238.7896,358.3
238.8421,5162.9
238.8693,143.1
238.9433,62.8
239.0037,121.7
239.0092,3410.9
239.0143,764.5
239.0474,306.3
239.0494,113.4
239.0522,65.7
239.0573,61.6
239.0639,339.4
239.0909,19.8
239.1091,266.4
239.6311,383.2
239.7102,220.6
239.7805,110.6
239.8827,267
240.0043,435.3
240.0406,40.8
240.0818,68.1
240.1006,225.5
240.2024,55.5
240.4157,122.2
240.484,59.2
240.505,45.9
240.6293,170.4
240.839,2080.3
240.8852,169.9
240.917,131.3
241.0274,198.5
241.0312,292.3
241.0851,189.8
241.1603,48
241.277,107.2
241.2909,55.8
241.3278,832.8
241.409,47.8
241.4127,24.7
241.444,282.7
241.4588,90.6
241.5609,163.7
241.5792,656.1
241.6346,322.9
241.648,127.3
241.6712,90.6
241.716,46
241.758,153.9
241.7787,53
241.8006,539.5
241.9692,75.9
241.9773,24.3
241.9801,30.9
241.9983,529.7
242.0144,84.8
242.0193,1398.1
242.0327,61.9
242.0725,276.8
242.1989,106
242.2778,18.9
242.346,65.8
242.3602,97.6
242.4066,140.2
242.4771,661.2
242.4807,69.9
242.4985,341.3
242.5257,125.1
242.5499,93.9
242.6076,98.2
242.6449,104.8
242.7927,70.1
242.9255,4742.7
242.9684,19.9
243.0013,405.1
243.0065,3704.8
243.0533,15733.1
243.0655,12212.8
243.0785,48.5
243.0824,59.4
243.2112,410.7
243.235,114.7
243.5367,52.3
243.5602,337.6
243.6167,171.2
243.6329,475.9
243.6624,73.1
243.811,768.4
243.8229,715
243.8761,48.6
243.9123,57.3
243.9659,58.8
243.9728,1228.7
244.0127,164.1
244.0561,393.3
244.2232,176.1
244.2385,119.1
244.3747,47.4
244.4383,210.6
244.4906,159.9
244.5294,329.7
244.5733,18.4
244.6137,81.7
244.7342,72
244.7704,61.9
244.7874,371.2
244.7988,64.7
244.8707,1991.9
244.9762,92.9
244.9912,99.3
245.0121,46.7
245.0717,258.7
245.1562,211.2
245.2159,124.5
245.2379,54.8
245.2772,381.3
245.3951,291.8
245.5096,53.8
245.5377,48.6
245.5791,233.1
245.642,728.2
245.7064,183.2
245.7568,479.7
245.8729,47.3
245.9403,457.8
245.9681,31
245.9733,42.5
246.0014,24.5
246.0149,134.5
246.0501,349.7
246.0656,116.8
246.187,744.1
246.2215,51.3
246.2582,136.8
246.4874,50.4
246.5064,731.6
246.5478,69.9
246.611,730.7
246.6583,50.7
246.7244,43.1
246.8626,95
246.8738,110.5
246.8777,47.1
246.9519,137.7
246.9664,85.1
246.9705,28.9
247.0437,98
247.048,155.5
247.0586,786.7
247.0669,1417.2
247.0927,5364.9
247.1867,77.1
247.2111,182.6
247.2129,176.9
247.2608,63.8
247.2676,807.1
247.2932,191.1
247.3674,427.6
247.4195,118.2
247.5415,55.4
247.8336,347.4
247.9678,86.5
247.9832,120.7
247.993,43.4
248.0776,419.5
248.0959,116.4
248.1242,2815.1
248.1519,139.6
248.2462,94.4
248.3406,108.6
248.487,236.1
248.4921,52.2
248.6827,728.3
248.7845,210.7
248.8708,6712.1
248.9009,52.8
248.9478,21.9
248.9713,158.8
249.0613,9779.7
249.1083,64.7
249.2215,143.4
249.2497,360.9
249.3421,290.1
249.3472,132.8
249.4696,45.4
249.507,71.1
249.5289,18.2
249.6344,77
249.7425,43.1
249.7738,468.2
249.9707,237
250.0258,20.4
250.0383,905.6
250.2116,210.3
250.2566,331.2
250.2742,68
250.3327,88.1
250.5021,74.3
250.6633,92.8
250.7558,164.8
250.8682,1245.7
250.894,76.2
250.9028,59.1
250.9203,1208.6
250.9504,27.1
250.9555,496.1
250.9806,78.9
250.9995,261.7
251.0215,60.1
251.03,64.4
251.0339,1036.5
251.0549,429.5
251.1274,224.4
251.1766,63.4
251.1922,385.1
251.1973,77.3
251.346,308.1
251.4258,48.2
251.502,296.4
251.5594,18.7
251.6017,72.3
251.6699,427.4
251.7089,161.3
251.745,191
251.7897,57.3
251.9296,46.1
251.9727,43.6
251.9807,1132.8
252.0062,193.9
252.0373,167.2
252.0458,129728
252.0865,19.5
252.2187,59.9
252.2684,70.3
252.277,46.1
252.2882,231.4
252.3197,286.4
252.3289,60.2
252.3685,77.9
252.4162,265.8
252.485,19.2
252.5145,65.5
252.6705,339.1
252.7148,480.9
252.7488,78.6
252.7666,818.8
252.8241,329.5
252.9175,414.3
253.0256,95.1
253.0358,65.4
253.049,8059.3
253.213,828.2
253.4551,389.6
253.5438,128.2
253.7709,46
253.7809,117
253.852,72.5
253.868,48.4
253.9481,307.7
254.0356,545.8
254.0436,3513.1
254.0816,869.7
254.3782,47
254.7308,223.6
254.8242,4800.9
254.9933,117.4
255.0251,341
255.033,18027.3
255.0404,1127
255.0464,1149.9
255.0818,824.8
255.1655,71
255.2373,776.8
255.2943,117.5
255.3512,368.1
255.3853,59.9
255.4459,175.3
255.475,181.7
255.5973,1814
255.649,74.7
255.6832,447.1
255.8026,359.8
255.9,491.7
255.9093,72.3
255.9431,140.2
256.0155,73.9
256.0429,420.9
256.1232,47.3
256.1306,73
256.2441,78.4
256.2866,136.6
256.3155,99.3
256.3172,141.1
256.3847,51.6
256.4101,128.8
256.4553,355.4
256.5427,543.2
256.648,372
256.7085,100.3
256.8133,400.9
256.8211,9354.3
257.0222,757
257.0272,80.7
257.0488,4210.6
257.0608,53.7
257.0658,677
257.0747,39965.6
257.1894,17.5
257.2052,67.3
257.3208,84.3
257.3614,319
257.4245,44.2
257.5684,780.5
257.6038,148
257.7405,663.5
257.8757,119.2
257.9116,47.4
257.952,139.8
257.9733,21.3
257.988,46.7
258.0101,73.5
258.0301,5066.1
258.0741,24.8
258.0779,1192.3
258.1103,4815.2
258.1495,20.1
258.182,836.5
258.3527,97.1
258.5037,96.7
258.6695,21.3
258.7468,70
258.8182,2128.8
258.8674,934.2
258.8998,798.5
259.0168,43.1
259.0227,210.5
259.0335,64.9
259.0378,3733.3
259.0518,217.5
259.0737,60.5
259.1125,381.4
259.1223,333.1
259.2092,503.9
259.4181,499.7
259.4548,176.1
259.505,49
259.5183,46.2
259.531,52.3
259.5621,654.7
259.5723,69.6
259.6236,291.4
259.8722,739.4
259.8964,47.3
259.9263,308.3
260.0013,134
260.1353,344.6
260.2036,492.5
260.2074,178.5
260.3528,42.8
260.8386,684.9
260.9071,66.1
260.9493,4290.3
260.9693,880.4
261.0031,208.8
261.0077,21.7
261.0302,238.1
261.0382,494.9
261.0466,75.4
261.1219,343.8
261.1929,54.5
261.2547,136.9
261.4435,189.2
261.5813,102.3
261.6039,45.5
261.8879,84.1
261.9701,59.4
261.9833,86.5
262.0389,375.2
262.2378,61.9
262.248,46.2
262.3385,98.5
262.3812,935.1
262.4897,506.6
262.5104,378.4
262.6315,135.6
262.7271,189.3
262.8192,265.1
262.8534,218.9
262.9466,545
262.9563,353.1
262.9738,83
262.993,260.3
263.0141,341.1
263.0182,666.8
263.0236,181.8
263.0851,1021.7
263.0978,345.6
263.1406,96.7
263.1954,303.8
263.3583,199.2
263.4712,112.4
263.5613,820.5
263.7427,142.4
263.8999,63.7
263.9096,825
263.9335,50.4
263.9542,472.1
264.0053,149.7
264.1739,132.9
264.2501,124.7
264.2946,195
264.3114,476.1
264.4755,67.6
264.4984,93.2
264.5608,56
264.6025,410.2
264.7141,81.6
264.8001,74.4
264.8432,282.4
264.853,2971.8
264.9192,116.6
264.9226,79.3
264.9335,607.8
264.9734,408.5
264.9886,13915.8
265.0093,340.4
265.0187,210.6
265.0232,1859.1
265.0353,7757.7
265.0475,791
265.1464,74.5
265.1797,64.8
265.3826,46.6
265.4899,954.6
265.5018,64.1
265.5368,329.1
265.5819,223.2
265.6187,704
265.6312,231.8
265.6799,46.1
265.7682,77.5
265.8355,50.3
265.9441,362.3
265.9578,79.7
265.9784,103.6
265.9918,504.5
266.0252,216.4
266.0563,242.5
266.0938,49.7
266.1227,239.4
266.1589,228.8
266.2016,136.4
266.232,104.7
266.2782,214.9
266.4827,18.9
266.5385,360.9
266.5722,478.9
266.7345,53.5
266.765,71.6
266.85,3210.1
266.8944,1959.2
266.9192,366
267.034,1178.2
267.0817,165.5
267.2354,206.5
267.3923,650.7
267.5285,575.7
267.6472,341
267.6661,83
267.8332,70.4
267.9569,129.7
267.974,62.5
267.9941,396
268.001,262.9
268.0294,278.7
268.2016,73.2
268.2352,83.9
268.2961,69.4
268.3628,248
268.3806,328
268.429,90.4
268.4901,59.8
268.5553,86.2
268.7998,48.4
268.8469,733.8
268.8649,733.6
268.8916,509.8
268.9423,54.5
268.9796,54.9
268.9975,60.4
269.013,64.7
269.0281,144.6
269.0342,418.1
269.0449,17341.4
269.0487,34891.8
269.0557,337
269.0643,87
269.1634,300.6
269.3649,19.5
269.3796,45.6
269.5397,380.1
269.8839,347.1
269.9897,139.8
270.0097,126
270.0249,6835.5
270.0475,16393.5
270.1033,679.7
270.1375,45.5
270.1449,238.6
270.1806,43.1
270.2079,238.5
270.235,170.7
270.3513,101.9
270.4389,122.2
270.5365,151.9
270.6374,50.1
270.7339,363.3
270.7979,2485.2
270.8176,307.1
270.8265,126.3
270.978,5821.4
271.0245,600
271.0282,544.6
271.0509,669
271.064,295.4
271.078,1043.2
271.0905,1233.4
271.1089,303.1
271.1549,48.6
271.295,45.3
271.3119,836.8
271.4528,76.6
271.6531,70.3
271.7996,201.7
271.8407,347
271.9417,244.1
271.9673,53.8
272.0206,285
272.0252,21.2
272.0434,101.2
272.0809,221.1
272.1077,860.8
272.1234,130.2
272.1434,218.2
272.2105,195.9
272.2956,209.1
272.3229,373.5
272.3311,148.3
272.4539,95.2
272.5004,129.9
272.5821,750.7
272.6948,353.1
272.7547,46
272.7952,4757.5
272.8327,779.4
272.8527,240.3
272.8607,157.8
273.0006,712.3
273.0489,1293.3
273.1338,171.5
273.1982,278.4
273.2618,70.4
273.3492,160.7
273.3629,17.5
273.5073,52.6
273.5117,451.5
273.6246,197.7
273.7009,712.4
273.7569,76.7
273.7989,711.4
273.806,133.2
273.8254,80.3
273.84,451.5
273.8723,47.8
273.9626,5005.3
274.0384,55.6
274.0692,34.7
274.09,67.9
274.1645,81.9
274.2341,331.7
274.2791,19.8
274.604,132.7
274.6232,18
274.6807,119
274.7551,92.3
274.7924,1563.7
274.8133,225.8
274.85,89.4
274.8816,471.7
274.8859,417.4
274.9014,111.1
274.9531,82
275.0165,73.4
275.0311,1449.5
275.0744,123.8
275.094,343.3
275.1372,69
275.3046,129.2
275.3098,164.6
275.3991,52.9
275.4479,280.5
275.452,742.6
275.5275,395.5
275.8309,209
276.0036,62.6
276.027,48.1
276.0472,47.6
276.0765,78
276.16,778.7
276.2167,536
276.3637,49.2
276.3893,140.8
276.4473,831.9
276.533,142.6
276.7055,603.2
276.735,66.8
276.8527,110.4
276.884,248.7
276.9154,154.9
276.9233,4014.9
277.1371,48.4
277.1825,42.8
277.6782,159.4
277.6934,56.7
277.954,291.6
277.983,44.4
278.0004,30.9
278.0192,336.5
278.0493,161.8
278.0656,79
278.1553,234.7
278.2632,174.4
278.3785,298.2
278.4818,254.1
278.7627,51.4
278.8007,269.6
278.8614,308.7
278.8922,118.1
278.9206,1240.3
278.9876,2098.9
279.0041,2319.6
279.022,303.3
279.0567,43495.9
279.1093,232.9
279.2542,672.3
279.3657,53.7
279.3914,494.5
279.4973,53.9
279.5864,827
279.6469,271.3
279.8356,193.9
279.9869,298.3
280.0121,2168.4
280.0486,428.5
280.0595,233.2
280.1216,416.1
280.3204,803.9
280.4206,73.6
280.6539,129
280.7395,76.6
280.7465,352.9
280.777,277.7
280.7882,342.4
280.827,1594.8
280.8475,357.3
280.8653,780.3
280.9626,56.9
281.0042,49.4
281.0098,558.6
281.0332,586.9
281.0518,396.1
281.2377,53
281.3468,346.1
281.3663,345.2
281.3984,454.4
281.8064,48.3
281.8198,139.5
281.9635,350.1
281.9916,152.4
282.0004,108
282.015,92.1
282.0495,289.2
282.065,338.9
282.1376,444.5
282.1553,99.3
282.257,228.3
282.276,235.1
282.3339,81.2
282.4766,135.8
282.5159,768.5
282.6864,107.7
282.7194,270
282.7536,356
282.8242,1727.1
282.8855,96.9
282.9076,173.1
283.1086,21.9
283.1591,51.7
283.1744,73.9
283.2643,405.4
283.2738,857.7
283.2894,50.2
283.4295,19.5
283.4354,370.8
283.4493,70.3
283.5109,717
283.5286,19.7
283.572,48.1
283.6228,303.2
283.6518,137.3
283.6683,57.4
283.8044,311.5
284.0246,70.5
284.0515,778.2
284.0632,1110.9
284.0754,76.8
284.1119,107.6
284.1668,68.1
284.4658,342.9
284.538,83.1
284.5566,50.8
284.5905,43.3
284.6588,52.9
284.81,17.4
284.8166,146.5
284.829,334.2
284.837,355
284.9173,46.6
284.944,157
284.9537,223.5
285.0172,1593.8
285.0229,53.4
285.038,834.1
285.069,283.5
285.1306,304.4
285.1998,195.4
285.3154,336.2
285.3524,58.3
285.4182,634.1
285.5811,45.7
285.6079,295.2
285.7444,81.7
285.8586,19.1
285.8837,776.3
285.9815,840.2
286.0099,464.9
286.0199,1278.4
286.031,732.2
286.0897,69
286.0964,68.2
286.1737,232.9
286.268,583.1
286.3948,160
286.4224,155.2
286.4646,44.7
286.5554,219.8
286.6315,61.7
286.6519,294
286.7214,53.7
286.7724,2423.1
286.7986,754.1
286.8207,66.9
286.8631,77.5
286.9357,375.3
286.952,2718.2
286.9962,143.6
287.0233,130.7
287.0554,42715.9
287.1532,51.5
287.1627,170.6
287.3222,49
287.3279,726.8
287.5239,50
287.5431,343.9
287.5932,487.5
287.94,90.1
287.9974,448.7
288.0158,35.3
288.0356,63.8
288.0587,1573.3
288.0846,67.6
288.1149,251.2
288.1555,5823.7
288.2474,325.4
288.2557,83
288.2884,581.1
288.3448,718.7
288.4098,64.3
288.4301,404.7
288.4511,137.1
288.4568,317.5
288.5346,665.4
288.6939,476.8
288.7694,2028.5
288.8501,709.5
288.8609,567.2
288.9151,1978.6
288.9217,3181.9
288.9266,4341
288.9389,5500.9
288.945,5584.6
288.9537,7778.1
288.9651,15315.7
288.969,14094.9
288.9725,15204.9
288.9762,14433.1
288.9811,14701.1
288.9901,15248.4
288.9945,15099.8
288.9976,13658.7
289.0057,15917.4
289.0125,13680.9
289.0158,10677.5
289.0234,6095.9
289.028,3337.7
289.0321,3684.4
289.0401,126.9
289.0431,130.5
289.0617,1049
289.1186,70.2
289.1869,45
289.3795,234.3
289.4326,216.4
289.4519,355.4
289.5629,46
289.6437,168.9
289.6678,160.4
289.8366,360.7
289.9366,721.7
289.9717,52.7
290.0998,51.1
290.2766,172.2
290.3092,696.8
290.5534,160.5
290.6068,48.8
290.6722,127.2
290.6779,758.7
290.6994,780.8
290.7664,1183.6
290.8204,135.1
290.8559,533.4
290.8797,532.2
290.9015,641.2
290.9399,434.9
290.9569,719.6
291.0269,658.9
291.0385,81
291.2554,50.3
291.3912,728.3
291.4476,19.4
291.5231,296.3
291.5405,202
291.7388,19
291.7659,89.7
291.8786,171.5
291.9198,74.5
291.9821,44.6
292.2412,352
292.6218,138.4
292.6575,798.7
292.7803,19.4
292.796,473
292.8773,135.7
292.8969,564.8
292.9954,157.9
293.005,654.5
293.0723,3595.9
293.0983,382864.3
293.1095,805.2
293.277,267.2
293.4274,370.9
293.719,68.4
293.7726,45.2
293.7823,44
293.9854,206.6
294.0838,66.1
294.0953,760.7
294.1016,35423.4
294.2331,71.1
294.2735,399.7
294.4794,194.2
294.8943,388.8
294.9906,78
295.0307,2218.5
295.0963,57.2
295.1021,3279.3
295.1224,45.8
295.1948,8968.8
295.2909,42.9
295.342,93.6
295.4007,335.8
295.458,66.9
295.4952,685.7
295.5225,104.4
295.5941,526
295.7577,815.7
295.9776,129.1
296.0356,21.6
296.0928,225
296.1043,101.5
296.1607,21.3
296.1979,749.9
296.2947,62.4
296.3698,50.5
296.53,135.2
296.5785,200.5
296.6525,729.7
296.6762,70.3
297.1537,343.2
297.2083,413.8
297.2863,80
297.3283,158.4
297.4019,268.8
297.5468,52.6
297.613,18.1
297.675,42
297.822,863.1
297.9077,260
297.9193,60.5
298.005,22.9
298.0256,799.6
298.0424,28747.6
298.1341,57
298.2274,74.9
298.3069,50.6
298.3751,111.5
298.5476,704.3
298.6049,44.1
298.711,110.4
298.7981,337.8
298.8058,134
298.878,28.5
298.9283,234.3
298.9409,51.1
299.0091,208.2
299.0248,41.7
299.0389,28.6
299.046,1215.3
299.1394,1882.9
299.2154,63.4
299.2884,165
299.334,43.4
299.3442,129
299.3862,124.4
299.4241,88.8
299.5613,212.5
299.6133,113
299.7207,313.5
299.822,285.3
299.8237,344.8
299.8801,110.1
300.025,144.7
300.0355,933.5
300.0593,549.5
300.0755,261.1
300.1182,19.1
300.246,101.8
300.3205,367.1
300.3668,75.1
300.4862,157.6
300.5957,65.8
300.6333,73.7
300.6471,232.5
300.8211,191.1
300.9531,51.7
300.97,295.5
300.997,108.8
301.0264,51
301.0325,220.2
301.0387,21260
301.0598,20.1
301.1319,142.9
301.1416,219.9
301.2429,378.5
301.3726,222.3
301.4516,492.1
301.6267,20.5
301.7514,796.5
301.7914,793.4
301.994,2591.9
302.0123,696.7
302.02,7706.9
302.0308,308.9
302.0334,306.1
302.0418,165
302.0511,232.9
302.0642,2964.8
302.0737,26.1
302.094,112.7
302.1268,170.4
302.1623,76.4
302.1954,380.8
302.2588,724.1
302.2753,84.4
302.28,52
302.3287,41.4
302.5054,108.6
302.5399,86.6
302.5571,432.4
302.6663,349.2
302.6731,391.7
302.6919,507.5
302.8299,689.8
302.8442,639.4
302.9259,432.5
302.9885,257.8
303.0279,9316
303.0545,24.1
303.0676,196.9
303.0755,1031.5
303.1748,668.4
303.1876,68.8
303.2936,694.7
303.3179,103.3
303.3375,47.9
303.3531,42.9
303.4043,19.4
303.6596,366.5
303.7251,622.5
303.9217,234
303.9857,131.9
304.0312,309.1
304.0599,112.4
304.1956,598.9
304.2362,320.8
304.3002,164.7
304.4585,84.9
304.4716,77
304.484,369
304.5401,47.8
304.5944,530.5
304.6204,131.7
304.6968,58.6
304.7053,421.6
304.7233,71.7
304.7287,63.7
304.7861,75.1
304.8182,329.3
304.8262,503.8
304.8384,73.6
304.8411,140.3
304.8719,406.9
304.9479,335.3
305.0281,2187
305.0623,45.5
305.0997,44.2
305.2005,201.5
305.2237,21.1
305.2629,435.6
305.3898,53
305.6375,99.4
305.7255,204.3
305.9828,21.2
305.9997,219.1
306.0096,179.9
306.0344,62.1
306.0958,71.5
306.1361,607.4
306.1709,163.4
306.182,44.7
306.2835,402.3
306.4481,679.7
306.5332,78.3
306.5724,60.6
306.6384,72.3
306.6725,59.2
306.6796,53.9
306.8925,47.8
307.0238,464
307.0586,59
307.1528,379.6
307.1577,47.5
307.2024,21.5
307.3835,263
307.4187,365.1
307.7184,48
307.8108,65.2
307.8559,48.8
307.8981,654.7
308.0646,185.5
308.1477,241.7
308.1532,50.3
308.3463,888.3
308.4753,69.3
308.4948,47.6
308.6378,104.5
308.7669,218.1
308.8471,63.3
308.8714,24
308.8791,1505.3
308.9287,209
308.9545,864.7
309.0064,30.9
309.0375,4523.6
309.0768,610.3
309.0827,1358.7
309.1024,514.8
309.158,856.4
309.504,692
309.6955,119.4
309.7838,276.4
309.8327,772
309.9675,48.1
309.9858,47.1
309.9972,493.3
310.0421,250.8
310.6122,675.2
310.8764,2089.3
310.9561,831.9
311.004,27.4
311.0096,324.7
311.0169,73.2
311.0438,44.3
311.1013,69.8
311.17,441.7
311.2244,168
311.3475,44.7
311.5112,21.4
311.6163,474.2
311.7069,732.7
311.7721,51.8
311.9886,455.9
312.0196,190.4
312.1446,317.4
312.1463,336.7
312.1496,319.1
312.1633,216.2
312.2581,115.4
312.2619,342.7
312.273,223.3
312.2957,51.7
312.3123,56.5
312.3162,151
312.4426,213.2
312.4608,294.7
312.4684,53.3
312.5844,99.8
312.606,98.1
312.717,331.6
313.0172,136.2
313.0317,54.2
313.2418,125.9
313.2741,12152.4
313.3432,589.9
313.4735,324.4
313.5186,171.2
313.5465,90.6
313.5688,297.9
313.6323,56.3
313.8353,103.4
313.98,104.2
313.9855,58.2
314.0148,3727.2
314.0912,144.9
314.1083,77.2
314.2005,634.8
314.3107,217.5
314.3895,67.4
314.4526,148.2
314.6749,53.3
314.837,2917.2
314.8789,752.2
314.8899,751
314.9004,169.4
314.9898,163
314.9993,2953.4
315.0186,379.4
315.0552,7664.8
315.067,22175.9
315.0694,23988.7
315.0803,5850605.5
315.0964,2392.6
315.0983,2623.7
315.1067,428.1
315.1163,55.2
315.12,181.9
315.1615,3229.2
315.1762,235.1
315.1866,659.5
315.2615,123
315.3238,4135.1
315.4476,57.7
315.4864,267
315.5985,22.3
315.6125,124.2
315.6911,78
315.7153,141.4
315.7753,93.3
315.9392,501.4
316.0041,899.9
316.0105,112.7
316.0159,87.4
316.0387,75.7
316.0536,71.2
316.0586,264.7
316.068,1448.7
316.0775,31099.1
316.0836,583579.6
316.1122,1419.5
316.1714,189.9
316.366,281
316.4728,63.1
316.5645,95.2
316.8315,71.3
317.018,685.2
317.0563,10365.7
317.0652,2430.3
317.0841,64734.9
317.1582,148.4
317.2035,255.5
317.2356,66.5
317.2568,60.3
317.3434,288.1
317.4874,124.2
317.6345,770.4
317.644,118.5
317.7041,87.3
317.7295,48.2
317.7484,68.6
317.7614,18.8
317.8795,54.8
317.9056,476.4
317.941,92.9
317.9791,166.5
318.0474,20.6
318.0599,571.4
318.0877,5001
318.2033,50
318.352,344.9
318.4025,144
318.5038,173.6
318.5923,48.7
318.685,651.5
318.7716,508.1
318.7926,80.4
318.8156,887.3
318.9078,378.8
318.9635,318.3
319.0845,63.6
319.176,118.9
319.1948,15357.5
319.2037,55
319.323,19.2
319.4142,123.3
319.5204,995
319.5704,48.9
319.5875,54.2
319.6187,143.8
319.6552,45.9
319.6659,183.7
319.6842,72.1
319.93,289.5
320.0084,51
320.0349,921.3
320.0748,56.2
320.0831,392.2
320.1747,56.5
320.1978,99
320.2588,3511.2
320.3743,50.2
320.5704,61.2
320.6462,839.1
320.6983,171.1
320.7999,376.2
321.0441,296.8
321.1173,184.6
321.1225,161.4
321.2105,16138.4
321.2624,409.7
321.3911,298
321.4148,80
321.6376,116.3
321.6576,747.5
321.8047,40.3
321.8643,268.2
321.9611,41.6
322.007,553
322.119,632.6
322.2138,675.3
322.2646,150.3
322.277,149.8
322.4167,652.5
322.4196,666.1
322.4751,94.9
322.578,87.2
322.642,175.7
322.8117,431.9
322.8903,61.4
322.9132,644.4
322.9941,630.8
323.0142,292.1
323.0204,5976.6
323.0401,729.5
323.0852,737.8
323.1574,39.5
323.1934,90.2
323.2123,193
323.2262,2692.9
323.2826,334.2
323.2846,362
323.2877,347.1
323.4394,49.7
323.4905,925.5
323.5352,352.6
323.6307,608.8
323.7213,73.5
323.8121,800.2
323.829,683.8
324.002,19142.2
324.2223,812.4
324.2772,78.2
324.3265,104.9
324.3787,41.8
324.5489,696.3
324.6139,5712.3
324.6214,1882.8
324.6288,370.5
324.6368,272.5
324.6389,267.5
324.7521,82
324.7769,80.3
324.8086,929.9
324.8532,1302.3
324.9529,288.5
325.0057,1049
325.1351,157
325.3502,194.3
325.5143,125.9
325.548,61
325.7498,487.5
325.8617,64.2
325.9652,47.2
326.0051,33.5
326.2021,45
326.3056,44.9
326.6912,42.7
326.8044,725.3
326.8501,1273.6
326.9103,20.7
326.9312,48.2
327.1833,385.6
327.2274,6926.1
327.3341,17.3
327.3594,201.8
327.4128,78.6
327.8067,288.9
327.864,482.3
328.1036,74
328.2049,750.4
328.3966,334.5
328.4123,170.5
328.4166,178
328.4238,382.6
328.4321,293.2
328.4486,76.5
328.626,155.9
328.6653,298.9
328.706,71.6
328.7734,212
328.7886,63.3
328.9941,90.8
329.0077,46.4
329.0268,72.3
329.0959,1469.5
329.1896,319.6
329.2029,61.5
329.7322,88.1
329.9273,147.9
330.0592,251.3
330.1185,340
330.1419,78.7
330.3698,19.1
330.5365,72.5
330.5471,250.7
330.6132,121.2
330.7766,866.3
330.8614,126.8
330.9891,247.3
331.0206,699.6
331.0454,133833.4
331.0542,719414
331.2968,166.4
331.4067,103.7
331.45,52
331.7702,358
331.7894,57.3
331.8407,221.7
332.0323,489.5
332.0484,9753.2
332.0576,66727.1
332.1381,60.2
332.2443,373.4
332.3399,41.2
332.4113,19
332.4417,263.3
332.7873,65.3
332.8249,567.7
332.8402,786
332.8478,651.2
332.8979,684.6
332.9793,77.1
332.9918,56.9
333.0524,43474.6
333.0579,5205.8
333.0716,589.5
333.3386,545.4
333.3583,55.7
333.5138,362.4
333.7433,68.4
333.8419,362
333.8606,200
333.874,116.1
333.9892,81.6
334.0556,2471
334.0907,56.9
334.5243,80.1
334.8379,501
334.911,69.8
335.0135,216.9
335.0386,473.6
335.1156,98.9
335.1875,44
335.2186,688.5
335.2783,390.4
335.2946,236.5
335.8253,273.4
335.8885,116.7
335.9428,87.2
336.0098,455.7
336.0496,383.5
336.2904,86.5
336.4109,61.9
336.5465,261.9
336.9664,409.5
336.9855,55.9
337.0364,7019.2
337.0498,27107.6
337.0623,659265.6
337.0916,92.3
337.1471,188.9
337.183,92.9
337.2741,4729.8
337.2911,17.6
337.3368,53.8
337.3509,715.7
337.3832,169.9
337.6918,62.1
337.8378,644.9
338.0497,528.4
338.0656,58963.3
338.1192,230.2
338.1947,46.8
338.298,88.9
338.3428,21.6
338.3672,45.1
338.5849,228.6
338.6531,58.8
338.7326,108.1
338.7775,831.7
338.7862,392.1
338.845,310.5
338.896,809.5
338.9048,895.2
338.958,266
338.9897,83.1
339.0384,8762
339.0469,624.4
339.0663,3703.4
339.1982,60.6
339.2898,2453.9
339.3085,508.7
339.4392,647.7
339.4599,363.2
339.7907,288.3
339.8213,19.7
339.8813,112.2
339.9667,604.9
339.9758,1675.4
340.021,72.4
340.0417,135.6
340.0566,169.5
340.0709,841.3
340.1538,576.9
340.3751,19.3
340.444,466.5
340.7828,655.2
340.8275,393.4
341.0419,123.1
341.0485,249.3
341.1059,71.5
341.2417,83.4
341.3057,857.5
341.5222,107.6
341.7651,266.6
342.0155,10654.1
342.0297,668.1
342.0683,20.1
342.3442,102.3
342.3507,517.5
342.5297,414.8
342.6384,353.4
342.6615,172.2
342.6719,140.7
342.7122,44.7
342.979,52.1
343.0188,441.1
343.0297,189.7
343.1863,331.4
343.1949,10086.7
343.4057,261
343.4363,47.7
343.4495,68.9
343.6408,766.2
343.6837,420.8
343.8164,182.6
343.8927,57.6
343.9472,83.2
343.9882,273.4
344.0153,149.3
344.0485,738.2
344.0647,46.4
344.2632,126.4
344.2649,127.6
344.2684,116.5
344.5491,130.3
344.7316,444.1
344.9103,952.8
345.0063,44.5
345.0225,1266.1
345.137,725.2
345.2048,738.3
345.2103,219.5
345.2976,86.1
345.3208,222.6
345.3445,798.6
345.5162,222.7
345.5342,409.5
345.669,370.9
345.6921,187.7
345.7729,92.9
345.984,22539
345.9979,400.5
346.0099,3624.7
346.0208,2476.8
346.0411,246.5
346.0744,20.2
346.4973,20.6
346.5253,271.5
346.6603,344.3
346.9351,51.1
346.9878,800.4
347.0177,32769.5
347.0414,188.6
347.1144,55.6
347.1233,263.3
347.1385,585.2
347.2007,100.8
347.2836,470.4
347.4471,303.3
347.4943,355.3
347.8581,185.1
347.8771,171.2
347.914,41.4
347.9983,790.7
348.0214,2350.1
348.4067,54.3
348.7488,298.8
348.8231,447.3
348.8352,54.1
348.9397,179.2
348.9642,130.8
349.0181,6730
349.062,148.1
349.1785,21.1
349.5048,173.1
349.5151,62.8
349.5558,53.3
349.6337,235
349.7874,132.7
349.8329,280.1
349.9543,501.5
349.9686,74.8
350.0185,1292.8
350.1704,753.8
350.5197,360.6
350.608,716.5
350.6865,123.1
350.7809,393.1
350.8017,322.8
350.8106,402.3
351.0001,380
351.0137,2404.2
351.1324,740.5
351.1797,141.2
351.3529,247.8
351.627,228.9
351.6831,763
351.9402,682.3
352.1156,48.2
352.1341,121.2
352.2375,777.2
352.3217,45.2
352.3527,399
352.5751,75.8
352.6607,79.7
352.8394,480.2
352.8801,18.4
352.986,384.1
353.0105,218.5
353.0273,152226.1
353.0362,247309.2
353.0589,44.9
353.0895,49.8
353.2812,82
353.4253,45.2
353.4934,272.2
353.6262,56.9
353.763,151.6
353.8046,335.4
354.0305,11685.2
354.0395,22515.3
354.2356,435.9
354.3949,129.1
354.773,52.3
354.8162,237.2
355.0121,2697.9
355.0209,108
355.0344,13744.7
355.0703,1530.4
355.0799,283.6
355.2687,81.1
355.3586,52.1
355.4249,93.7
355.4475,674.6
355.4644,220.7
355.5005,47.8
355.7009,80.8
355.7154,79.8
355.7236,65.5
355.9317,232.1
355.9558,587.1
356.0156,143.3
356.0372,118.1
356.2469,202.6
356.5116,165.3
356.6831,140.8
356.7184,66.9
356.7863,770.7
356.8321,18.3
356.8867,52.7
356.9267,45.6
357.0089,769.3
357.0219,310.2
357.0671,24
357.1001,86.1
357.1466,696.3
357.1674,69
357.3735,428.2
357.5238,309.1
357.5899,97.5
357.5965,880
357.6102,83.9
357.6221,925.8
357.7828,39.3
357.845,45.7
357.9775,1676.7
358.005,171.3
358.0115,126.3
358.3234,639.5
358.3429,70.8
358.4608,20.7
358.8429,488.4
359.0077,445.8
359.0318,22915.4
359.0442,535384.5
359.2846,71.9
359.4078,49.9
359.4337,110.7
359.4438,213.1
359.4594,95.4
359.4675,99.4
359.4785,917
359.4877,212.3
359.5096,1924.9
359.5247,415.3
359.5365,102.1
359.5494,320.4
359.5614,151.6
359.5794,720.5
359.6059,62.2
359.6133,66.7
359.6266,225.3
359.6446,358.2
359.9925,91.6
360.0476,50862.2
360.3246,379.7
360.5267,46.9
360.5761,238.1
360.6578,383.2
361.0029,426
361.0102,754.4
361.0203,10434.3
361.0289,768
361.0479,1966.7
361.0928,57.4
361.1873,364.1
361.2743,670
361.2845,64
361.3,134.6
361.3728,82.4
361.3977,48.3
361.539,336.5
361.5523,244.8
361.5903,45
361.6534,96.2
361.6761,21.3
361.7803,45.9
361.8379,123.8
361.9579,6746.7
362.0068,49.7
362.0242,50.8
362.3327,62.5
362.3473,739
362.3518,738.4
362.4649,128.3
362.6647,126.8
362.7768,59.6
362.8284,184
362.9897,715.9
363.0169,181.2
363.1549,56.5
363.1904,171.6
363.1973,333.7
363.3792,53.1
363.4065,131
363.4876,52.4
363.5152,297.2
363.8395,64.6
363.9975,4003.6
364.0483,70.1
364.068,336.6
364.109,97.6
364.2196,254
364.3036,178.1
364.5907,351.9
364.9061,85.7
364.9358,410.7
365.0129,42.7
365.2024,856.4
365.4093,162.4
365.5617,75.4
365.7896,348.8
365.866,86.6
365.8755,20.6
365.8837,44.3
365.9861,28.7
365.996,126.7
366.0315,388.5
366.2305,49.1
366.2464,65
366.3419,361.9
366.6851,46.2
366.8154,232.8
366.8394,18.7
366.9088,827.8
366.9701,242.3
367.0045,538.5
367.1827,52.8
367.1942,61.3
367.4401,328.3
367.5066,367.2
367.8134,77.1
367.8444,154.9
367.9132,420.2
367.9919,7489
368.0029,1478.5
368.2171,282.7
368.2753,132
368.3392,91.8
368.4983,19.3
368.5987,779.3
368.6319,256.9
368.8227,79.9
368.8347,408.4
368.9813,54.9
369.0002,36453.7
369.0102,8143.2
369.0956,78.4
369.1572,187.2
369.2819,657
369.3522,530.8
369.4482,126
369.9928,176
370.0033,1481.9
370.1897,65.2
370.2062,48.2
370.4763,52.5
370.5705,118.1
370.7338,89.4
370.767,452.5
370.8002,68
370.8316,335.5
370.8822,420.1
370.8873,235.1
371,5268.5
371.1299,152.6
371.1598,298.6
371.199,82.5
371.2882,49.2
371.3259,812
371.3609,299.2
371.4451,319
371.9852,154.1
371.9935,105.9
372.0067,169.7
372.0515,48.1
372.0976,93
372.1539,85.7
372.5556,215.1
372.6414,183.1
372.6663,182.9
372.7379,574.1
372.7659,154.3
372.7842,184.4
372.905,738
372.9168,157.5
372.9956,1545.2
373.0935,48.1
373.1686,185.3
373.938,701.2
374.0594,47.6
374.3286,100.3
374.382,51.5
374.9678,723.9
375.0093,145033.1
375.0181,166445.6
375.1121,250.4
375.1738,271.9
375.2951,61.4
375.3921,191
375.5285,24
375.5394,395.9
375.6068,222.2
375.6869,665.7
375.9637,23.3
376.0125,11593.3
376.0216,14851.8
376.0534,18.1
376.3196,20.5
376.3742,275.5
376.3773,259.3
376.3812,224.7
376.3925,67.1
376.6964,60.1
376.8529,174.2
376.9943,4354.7
377.0165,8309.6
377.0779,266
377.2419,114.2
377.3413,293.2
377.6499,160.6
377.6798,450.9
377.6952,55.5
377.7263,206.6
377.7818,55
377.992,68.4
378.1469,173.7
378.1718,166.2
378.221,168.4
378.2862,56.6
378.3349,76.9
378.4141,73.8
378.5222,57.3
378.6275,413.7
378.748,134.9
378.8922,109.5
379.1927,49.2
379.3732,339.5
379.4119,19.3
379.5008,154.4
379.6357,44.8
380.0149,324.6
380.3645,198
380.5299,50.6
380.6213,250.5
380.6672,197.7
380.7152,72.7
380.8076,151.2
380.8214,679.9
380.9498,49.1
380.9733,78.6
380.9914,93.7
381.0138,22953.5
381.0262,317140.4
381.1834,216
381.418,236.1
381.4854,113.8
381.6363,906.2
381.7371,402.4
381.8063,359.8
381.8676,18.1
381.8927,98.5
382.0296,27371.6
382.044,49.8
382.2178,164.9
382.5001,732.5
382.5354,48.1
382.7315,42.9
382.7677,1428.5
382.778,54.1
382.9818,52.4
383.0128,113.6
383.0306,230.7
383.1165,261757.8
383.4236,203.1
383.4437,766.1
383.6425,136.1
383.657,282
383.9041,52.2
383.9161,75.1
383.9659,2588.1
383.9771,67.6
384.0796,128.3
384.1198,28045.3
384.2491,19.4
384.3566,119.8
384.4049,54.8
384.6325,1012.8
384.6813,76.2
384.7646,530
384.9649,319.5
384.9736,5363.1
384.9892,175.2
385.0999,154.3
385.1204,1622.1
385.2219,62.4
385.3681,304.2
385.389,112
385.4109,588.8
385.4331,179.7
385.5232,77.9
385.5513,239.3
385.5884,870.2
385.629,776
385.7463,81
385.9795,7577.5
386.1116,832.9
386.305,164.4
386.316,198.4
386.4007,698
386.4214,298
386.5061,51.2
386.8017,107.8
386.8497,401.7
386.8679,124.6
386.9742,690.7
387.5715,304.3
387.9301,51.7
387.9786,1220.3
388.0059,70.7
388.0567,346.7
388.1685,70.3
388.2402,91.3
388.5226,484.2
388.7489,166.6
388.8219,60.1
388.9048,357.1
388.9854,64.5
389.0174,388.7
389.0266,230.5
389.0359,81.9
389.1041,140
389.2235,218.4
389.2666,71
389.2941,54.1
389.6557,54.5
389.9345,47
389.9738,35020.6
389.9945,515.6
390.0673,53.3
390.2311,348.4
390.348,264.1
390.4512,87.3
390.6787,61.1
390.7096,1298
390.7987,1201.7
390.8209,20
390.8306,131.2
390.8475,228.1
390.8554,52.1
390.8737,518.6
390.887,17.9
390.9281,168.9
390.9827,38015.6
390.9921,20531.6
391.0247,192.4
391.4028,156.4
391.4413,160.4
391.6631,296.4
391.8875,50.4
391.9296,797
391.9767,69.9
391.9844,568.9
391.9914,195.6
392.0033,20.6
392.081,76.9
392.1863,131
392.2652,783.3
392.2815,95.5
392.3302,205.2
392.6188,209.6
392.6475,58.4
392.6731,16.8
392.7289,418.8
392.7965,1638.2
392.8238,248.6
392.8839,789
392.897,52.9
392.968,445.9
392.9821,3180.7
392.9892,1005.1
393.337,951.6
393.4923,59.7
393.5329,433.2
393.973,69.3
394.0104,684.2
394.0306,52
394.1735,230.2
394.388,58.7
394.3952,78.7
394.7479,21.5
394.7934,477.9
394.8832,362.8
394.9265,248.6
394.9775,235.2
395.0466,70.2
395.1221,190
395.475,161.3
395.6417,49.7
395.657,126.9
395.7154,53.9
395.9745,158.2
395.9824,155.7
396.1008,217.9
396.2235,302.3
396.2833,227.8
396.3792,87.1
396.5439,110.6
396.7025,692.5
396.7443,1704.2
396.9769,120
396.9913,130988.5
397.0001,126384.4
397.0834,91.5
397.1898,88.1
397.2544,379.9
397.423,46.9
397.4564,417.5
397.5224,75.8
397.5274,78.1
397.5485,163.8
397.7932,69.1
397.9673,49.6
397.9948,7569.1
398.0035,8004.8
398.1846,388.4
398.2418,5782.7
398.4255,526.4
398.7106,200.9
398.7414,1818
398.7598,1147.3
398.7888,58.5
398.9752,132.8
398.9876,147.8
398.9985,4544.5
399.1298,417.3
399.2639,160.5
399.443,427.5
399.4702,93.5
399.7244,212.7
399.7618,424.4
399.9096,126.5
399.97,121.9
399.9807,65.3
400.0032,65.7
400.0775,129
400.2348,186.4
400.7382,1216
400.7936,47.4
400.8281,577
400.9188,197.1
400.9854,760.1
401.1266,56.7
401.3076,388.5
401.4076,190.1
401.4455,195.4
401.6324,314.5
401.8405,74.5
401.9533,1062.4
402.0945,192.7
402.3371,134.8
402.4143,126.8
402.8254,491.5
402.9753,625.2
403.0081,210753.3
403.0647,319.7
403.2383,251.2
403.3021,39.8
403.369,127
403.5529,67.7
403.9426,827
403.9526,255.5
403.9599,83.7
404.0115,19904.5
404.1376,47.9
404.4277,199.2
404.4642,49.6
404.4913,185.6
404.6243,65.5
404.6865,435.4
404.7432,220.4
404.8125,62.5
404.9115,163.7
404.924,44.7
404.9774,160.5
405.0124,309.1
405.2506,735.4
405.2783,59.2
405.4074,93.6
405.4864,836.8
405.6009,122.2
405.6582,375.2
405.7104,90.3
405.7597,45.9
405.7901,188.3
405.9476,18456.7
405.9619,44.8
405.9903,48.4
406.0051,47.4
406.197,184.3
406.3298,1443.2
406.387,315.4
406.593,76.4
406.6089,76.4
406.7728,1871.4
406.8589,238.5
406.9555,3909.8
406.965,164.9
406.9979,148.6
407.3343,152.6
407.4335,93.5
407.496,133.2
407.5439,44.9
407.6576,430.1
407.9152,229.5
407.9482,549.2
407.9606,56.4
408.0967,214.5
408.2599,55.7
408.2643,71
408.267,66
408.2756,80
408.538,49.7
408.6163,428.5
408.7529,185.1
408.7699,1835.9
408.796,107.3
408.8231,173.2
408.906,42.8
408.9419,212.4
408.9569,140.9
409.1033,105
409.1697,135.6
409.2471,22.8
409.3704,84.4
409.4934,51.2
409.5021,146.5
409.6346,141.5
409.8729,85.3
409.8869,282.5
409.9568,47.5
410.0268,89.2
410.1726,96.1
410.3202,97.1
410.6168,49.3
410.7245,95.5
410.7666,506.2
410.9666,52.1
410.9886,624.5
411.2218,89.1
411.3338,72.1
411.5372,45.3
411.5648,347.7
411.5827,139.5
411.7498,47.7
411.8329,77.8
411.9662,49
412.1844,88.9
412.2474,97
412.3095,73.6
412.3216,4127.6
412.3441,511.1
412.719,566
412.9647,39382.7
412.974,21624.6
413.0535,154.4
413.2666,7627.5
413.2836,135.1
413.2993,84.8
413.3249,384.8
413.4242,719
413.4676,72.6
413.7129,283.3
413.8724,72.5
413.9396,50.8
413.9683,355.7
413.9962,68.3
414.2707,459
414.3484,66.9
414.3788,879.6
414.7154,974.7
414.9386,336
414.9648,273.5
414.9729,273.3
414.9972,3450.9
415.0635,405.1
415.0704,20.4
415.1154,20
415.203,625.6
415.3126,299.4
415.4088,134.2
415.4473,412.4
415.4908,135.5
415.6703,432.2
415.8262,77.8
415.8615,42.3
415.9768,43.7
415.9855,45.1
416.0631,54.1
416.1354,15567.8
416.2142,6187.4
416.2706,343.4
416.3348,106.8
416.3956,120.4
416.449,217.5
416.4619,63.3
416.5285,648.9
416.6999,71.7
416.7131,1041.3
416.8432,381.7
416.887,55.4
416.9095,323.9
416.9719,831.1
416.9813,61.7
417.0025,4763.5
417.1393,442.3
417.1668,495.6
417.2163,240.3
417.4721,48
417.7708,165.5
417.9401,52.4
417.9931,142
418.1045,71.4
418.1792,153.3
418.3149,66.1
418.7984,520.3
418.8805,186.9
418.9145,51.9
418.9581,670.8
418.9821,98364.2
419.0006,195.7
419.1701,824.8
419.1842,767.6
419.2296,121.6
419.2382,382.5
419.4079,861.1
419.4497,53.4
419.5447,46.5
419.9854,5304.3
420,60.4
420.0543,189.3
420.1426,50.4
420.3475,93.7
420.3675,56.4
420.3804,679.8
420.66,481.8
420.7847,640.4
420.9025,70.4
420.9809,4796.4
420.9885,582.4
421.4096,73.2
421.5968,64.6
421.7818,183
421.9215,3598.9
421.9436,20.4
422.0207,55.6
422.547,49.2
422.6371,50.1
422.7463,617
422.7862,357.6
422.9115,100.1
422.9734,19.1
423.0438,363.5
423.2144,913
423.2936,408.4
424.0219,82.2
424.1273,48.4
424.2417,60.8
424.3601,316.3
424.4263,18.9
424.4792,49.6
424.4885,152.3
424.5794,212.1
424.7332,228.1
424.7441,749.7
424.8145,54.5
424.824,316.9
425.0704,173.4
425.7053,75
425.7177,331.9
425.8834,71.3
425.9007,166.9
425.9342,140.4
425.9636,83
426.015,444.9
426.3016,145.8
426.8335,107.2
426.889,316.2
426.941,23
426.9757,22.8
427.0483,104.4
427.1461,78.7
427.2628,58.8
427.3551,17.1
427.5376,198.7
427.7057,313.2
428.0069,186.8
428.3861,71.3
428.4766,51
428.6902,48.8
428.7592,276.2
428.9378,5948.8
428.9504,1138
428.9591,1017
429.0236,19.6
429.0893,395.9
429.7008,151.5
429.9419,140.8
430.2845,529.9
430.3225,325.8
430.3713,335.6
430.6978,514.3
430.9384,195.3
431.2168,1270.1
431.4194,271.8
431.7705,127.8
431.9219,56.2
432.1086,21.2
432.1356,48
432.3124,44
432.3315,109.1
432.4491,159.1
432.7171,97.5
432.8381,142.5
432.9227,58.2
432.9677,295.5
432.9766,584.5
433.0057,76.3
433.084,174.2
433.2632,105.7
433.3814,658.1
433.5742,88.2
433.5849,121.3
433.6459,84.4
433.9392,49
434.2319,61
434.2638,16.2
434.3124,50
434.4333,706.5
434.9561,23517.1
435.2073,265.1
435.3413,46.7
435.4003,429.3
435.4979,266.5
435.8863,107.8
435.9049,87.6
436.21,49.5
436.383,335.9
436.7705,197.8
436.8449,117.1
436.8878,131.8
436.9541,686.2
437.3262,53.1
437.5053,401.5
437.6185,51.7
437.7593,93.6
437.8405,50
437.9465,78.5
438.0335,345.7
438.1659,364.3
438.1991,196.7
438.2343,285.8
438.6816,702.6
438.696,169.3
438.7622,719.7
438.914,53.9
438.9721,3597.6
438.9848,38987
439.047,397.4
439.3126,138.1
439.3792,783.1
439.5249,91.5
439.5488,234
439.7551,49.1
439.7744,58.1
439.7857,272.6
439.9882,508.7
440.1432,426.1
440.1636,263.6
440.2691,661.7
440.3316,75.5
440.3752,89.7
440.4504,49.6
440.9818,8475.5
441.1194,295.7
441.2982,195.9
441.3502,168.7
441.361,82.4
441.4413,141.1
441.5566,232
441.6791,148.3
441.8057,797.7
441.986,399.9
442.0962,218.6
442.148,146.3
442.2099,704.1
442.8757,47.4
442.9361,85.4
443.0344,77.1
443.3431,310.8
443.4537,409.8
443.6206,47.1
443.7683,325.8
443.8666,101.1
443.9287,322.2
443.9811,72.9
444.0349,59.2
444.1272,67.6
444.204,79
444.3613,220.7
444.3699,714.9
444.5311,44.1
444.6733,771.5
444.7309,98.2
444.8605,166.7
444.9118,130.2
445.0875,77.1
445.181,65.1
445.2326,395.9
445.343,923.2
445.3544,236.6
445.4906,200.2
445.5794,294.1
445.6207,558.6
445.6397,790.5
445.6794,68.7
445.9539,320.6
446.2926,163.7
446.3949,206
446.4807,690.2
446.5177,74.6
446.6235,761.1
446.677,194.3
446.7907,60.8
446.808,405.7
447.0246,67.5
447.4331,243.9
447.4886,18
447.7586,202.5
447.9324,3932.7
448.0218,58.4
448.3399,715.3
448.6045,100.2
448.6675,374.2
448.9835,53.6
449.0006,1167.5
449.0575,78.4
449.1544,1103.7
449.2043,309.5
449.2141,135.3
449.5434,367.1
449.6642,107.3
449.7634,286.2
449.8271,160.3
449.8507,61.1
449.8862,103
449.9295,306.6
450.0436,860.4
450.1577,195
450.2379,214
450.2559,380.5
450.3743,690.5
450.6691,299.1
450.8068,47.2
450.9178,70.3
450.9303,917.9
450.9885,204.4
451.0349,443.1
451.045,176.5
451.1504,53.9
451.3583,54.7
451.708,45.3
451.8181,115.6
451.9317,18.9
451.9449,73
452.1269,513
452.1525,24
452.2784,847.2
452.3344,207.2
452.5008,74.6
452.7355,295.3
452.7518,530.2
452.7941,61.7
452.9199,154.1
453.0036,51.3
453.1303,159
453.1926,76.4
453.4791,49.2
453.8285,66.8
453.9315,70.4
453.9497,695.6
454.9366,33.8
454.9501,34804.1
454.9585,15340.4
455.0704,341.6
455.2636,344.6
455.7594,45.2
455.857,84.1
455.908,252.9
455.9551,862.2
456.0952,278.8
456.1717,77.7
456.185,805.7
456.2502,105.1
456.4578,390
456.6996,718.3
456.897,145.7
456.9472,6299.4
456.956,3687.2
457.2159,66.7
457.2331,7628.1
457.4833,130.8
457.5124,83.5
457.5704,272
457.612,190.5
458.2848,80.3
458.3328,831.7
458.3853,47.6
458.4026,345.6
458.6017,269.9
458.685,765
458.6974,572
458.9346,18.5
458.9614,1159.2
459.2486,230787.1
459.3804,282.1
459.5371,284.4
459.6437,347.9
459.6636,705.7
459.7911,17.8
459.9178,402.8
460.0067,65.1
460.0478,228.6
460.1103,348.6
460.252,43037.4
460.3009,776.7
460.3903,144.8
460.5744,233.2
460.7176,210
460.748,156.4
460.8126,148.9
460.9667,85196.6
461.1264,67.1
461.2556,2799.3
461.3333,967.6
461.3611,469.7
461.5667,798.3
461.5812,262.5
461.7509,300.8
461.7898,74.5
461.9437,153
461.9701,2995.7
462.0578,83.8
462.3892,144.4
462.6019,774.6
462.9067,66.5
462.9638,25930.9
463.2144,259.4
463.2787,59.5
463.3399,49.1
463.3757,744.9
463.4395,282.6
463.7365,281.9
463.9062,1997.7
463.9671,1158
463.9987,339.3
464.0772,349
464.2725,52.3
464.454,158.1
464.5431,18.8
464.6131,63.7
464.7776,80.8
464.9085,243.2
464.9789,9609.5
465.2261,111
465.4542,45.7
465.4654,186.7
465.9031,162.4
465.9359,18.1
466.0889,1049.2
466.1447,394.3
466.2286,712
466.2571,664.9
466.3139,97.3
466.4181,770.4
466.5514,652.6
466.7288,371.3
466.8322,338.7
466.9211,41
467.0017,114.5
467.2114,126.6
467.3636,155.8
467.7165,204.2
467.7756,833.5
467.8499,418.9
467.9289,264.1
468.0782,314.5
468.3469,75.9
468.3569,370.7
468.4014,304.8
468.5638,135
468.6079,231.7
468.637,235.7
468.7667,127.7
469.0951,47.1
469.2162,999.2
469.7145,296.7
470.0061,194.6
470.2488,121.5
470.3393,228.6
470.4891,23.8
470.597,57.3
470.6275,48.9
470.826,761.5
470.9237,19509.5
470.9957,3946.5
471.0056,193.3
471.1677,201.7
471.3623,385.4
471.5366,448
471.9064,270.6
471.9263,328.1
472.1812,184.7
472.2409,192.4
472.376,805.6
472.4386,302.2
472.6325,18.8
472.7669,62
472.8274,759.9
472.8383,190.2
472.9215,4760.9
472.9428,881.1
472.9571,126
472.9751,47.9
472.9851,58.5
473.0197,61.3
473.036,1058.6
473.149,217.3
473.1608,106.7
473.2641,3106.8
473.4081,141.4
473.4694,51
473.5441,63
473.622,666.8
473.8091,236.3
473.8326,239.7
473.9125,477.1
474.2105,48.1
474.4992,772.7
474.6177,18.9
474.6861,124.5
474.7063,44.8
474.7606,600.7
474.8694,96.5
475.0228,646.3
475.2226,15762
475.3572,136.4
475.4104,127.3
475.4347,55.8
475.4967,322.7
475.6605,18.6
475.7236,66.2
476.09,29.3
476.2087,58.5
476.2256,753.8
476.3181,73.6
476.3389,335.4
476.3958,64.8
476.4279,50.1
476.4476,757.2
476.5451,81
476.6616,52.1
476.7061,680.4
476.7195,88.3
476.9407,64050.4
477.2283,916.1
477.2887,75.4
477.4613,155.1
477.5836,20.2
477.7925,425.9
477.8939,84.6
477.9436,3298.6
478.1116,54.3
478.2381,54
478.2902,193.4
478.3296,24561.9
478.5534,49.7
478.938,16310.3
479.0031,1079.6
479.1511,45.6
479.1682,248.3
479.3323,3571.5
479.3456,216.4
479.5213,413.9
479.581,277.3
479.6724,72.9
479.8118,21.1
479.837,470.7
479.8738,121.6
479.9162,715
479.9423,855
480.2098,73.2
480.3457,1779.5
480.7094,204.6
480.7982,20
480.8349,347.4
480.8864,346
480.9423,372.2
480.9529,1939.8
481.0042,747.9
481.0917,800.6
481.2175,45.1
481.5046,86.8
481.8858,370.9
482.0959,117.2
482.3244,1179
482.3592,315.2
482.3815,713.7
482.5138,44.6
482.7602,79.2
482.8261,395.5
483.0862,59.4
483.1438,118.7
483.2486,80256.1
483.8655,65.6
483.9695,52.1
484.0836,297.8
484.252,16330.4
484.399,18.7
484.497,395.3
485.0244,66.6
485.1082,530.5
485.1598,330
485.1919,156.4
485.2428,833.1
485.2641,66292.6
485.293,214
485.9933,132.1
486.0125,113.1
486.0473,757.9
486.2469,370.3
486.2676,13123.3
486.4029,117.7
486.5791,154
486.897,1066.4
486.9701,1338.6
487.0175,761.4
487.0484,675.2
487.0708,266.1
487.2799,43949
487.5246,85.2
487.7332,144.3
487.754,314.4
487.7607,309.8
487.912,141.2
487.9655,71.3
488.1023,104.7
488.142,464.1
488.2833,8431.8
488.3675,182.3
488.4489,374.2
488.4672,490.3
488.7433,65.8
488.9987,358.6
489.0885,94.1
489.1031,488.2
489.1485,169.1
489.2469,19.1
489.2604,128.5
489.2833,675.4
489.3166,1450.8
489.3414,190
489.3552,870.2
489.3687,52.7
489.4264,47.6
489.4308,50.8
489.5324,48.8
489.5361,49.6
489.7977,18.7
489.8118,96.4
489.8973,829.2
489.9737,482.5
490.0559,172.8
490.2909,5132
490.6662,103.2
490.6851,794.2
490.7099,495.8
490.7999,135.7
490.9252,118.7
491.0844,81.1
491.0875,73.7
491.4369,117.9
491.4867,333
491.8815,72.4
491.9492,197.6
492.1163,59.3
492.1517,51.2
492.646,785.6
492.7501,64.8
492.9147,16107.2
493.1819,135.7
493.1986,257.1
493.2315,67.4
493.3942,173.3
493.4888,394.9
493.768,241.4
493.9194,415.3
493.9378,50.9
494.0063,110.9
494.095,83.5
494.1461,970.1
494.325,3378.4
494.4094,171.4
494.4734,363.5
494.8374,169.2
494.9127,3447.8
494.9667,160.5
495.1259,638.6
495.148,29.1
495.1599,128.7
495.2555,217.9
495.3281,1085
495.3959,84.3
495.4377,48
495.5544,20
495.6711,699.1
495.7546,93.5
495.9698,58.3
495.9885,248
496.1458,102.8
496.3401,285591.6
496.358,596
496.3895,1008.3
496.5472,48.9
496.6728,898
496.931,871.4
496.9435,4576.9
497.2493,317.9
497.3434,74226.6
497.4724,513.4
497.8159,240.6
497.9519,75.6
498.2203,74.2
498.3467,6070.4
498.5589,57.4
498.9406,1682.8
498.9531,62.7
499.0592,327.5
499.0807,51.8
499.0891,81.8
499.2229,4067.4
499.2791,125
499.3276,729
499.3351,266.8
499.4678,226.2
499.5492,49.9
499.5601,214.6
499.7657,593.9
500.1767,90.6
500.2423,430.9
500.263,94.3
500.6275,644
500.7391,680.7
500.7964,89.2
500.9848,597.6
501.2386,2981
501.4316,193.4
501.5554,59.6
501.7252,60.3
502.0884,20.2
502.2217,59
502.2394,682.4
502.3288,9634.3
502.5153,165.9
502.5556,873.8
502.5705,160.4
502.6139,19.6
502.7285,50.3
502.7465,86.2
502.8959,237.7
503.0924,389.4
503.1086,151.4
503.2537,4237.4
503.315,113.9
503.3323,185.9
503.5233,108.7
503.6863,23.8
503.8704,317.3
503.8988,19.4
503.9351,326.4
504.0135,79.7
504.0439,113.9
504.0937,199.8
504.1063,22.3
504.1826,277.5
504.2298,44.4
504.3061,5164.6
504.3438,5756.9
505.1389,55.6
505.1798,718.3
505.3134,603.4
505.3487,667.2
505.6223,242.2
505.7425,760.3
505.7878,188.4
505.888,973.3
506.0421,231
506.1875,194.4
506.2649,1320.5
506.3463,93.9
506.3615,3958.8
506.7921,55.2
507.0483,394.2
507.2243,734.4
507.2487,20324.4
507.3364,416.9
507.3432,398.4
507.5251,143.1
507.5487,205.2
508.252,6520.7
508.3301,138.6
508.3764,1438.6
508.6252,463.4
508.6418,131.4
508.7129,439.3
508.7881,128.2
508.8106,87.5
508.8885,974.9
508.9047,52.3
508.9695,193.3
509.005,961.6
509.1007,383.8
509.1313,419.5
509.2644,9034.1
509.43,186.5
509.5151,18.1
509.6019,59
509.684,102.5
509.9349,355.3
509.9718,144.9
510.0366,707.8
510.2673,897.1
510.3559,1470.9
510.4052,157.9
510.6906,54.4
510.7836,105.2
511.0657,188.1
511.1247,69.5
511.1765,687.3
511.2927,355.8
511.3601,1058.8
511.544,44.6
511.5745,20.2
512.1593,323.1
512.2796,241.6
512.3337,538.8
512.6954,232.5
512.702,367.3
512.7071,453.9
512.8584,74.4
512.909,16922.8
512.9749,178.8
513.6204,97.7
513.7774,184.7
513.8592,18.5
514.1771,208.4
514.2716,219.3
514.2974,149.3
514.4224,108.1
514.6572,407.3
514.7022,103
514.7606,54.1
514.8527,98.7
514.9058,8040.2
514.9246,46.7
514.9585,144.3
515.0369,911.6
515.0565,975.8
515.4975,150.9
515.6001,119.5
515.7633,810.3
516.0486,325.2
516.3065,15050.4
516.3347,106.5
516.4079,88.2
516.656,734.9
516.8228,725.7
516.9468,201.9
516.9624,424.7
516.9733,61.6
517.3103,1535.6
517.3473,218.5
517.6681,156.2
518.0374,189.7
518.0722,101.4
518.2465,323.5
518.3221,588089.8
518.7275,215.4
518.9254,35779.3
519.1428,332.3
519.1765,346.9
519.2537,133.1
519.3254,137049.9
519.5911,821.7
519.9294,886.2
520.0181,60.2
520.1599,405
520.1889,54.2
520.3292,14498.1
520.3401,92817.1
520.3771,201.5
520.5435,126.3
520.9224,19605.4
520.9421,18.5
521.1571,59.5
521.1954,89.4
521.2321,65.4
521.2988,236.7
521.3257,325.3
521.3434,22679.5
521.7532,21.7
521.8124,244.3
521.8639,286.5
521.9131,51.3
522.3557,91377.2
522.5397,131.6
522.8222,57.2
522.9192,692.9
522.9378,3867.5
522.9671,938.3
523.0979,527.9
523.3589,21522.2
523.8808,900.9
523.9991,184.7
524.0088,214.2
524.0259,416
524.0336,62.8
524.058,102.1
524.0628,76.9
524.0691,61.8
524.1326,160.1
524.1517,389
524.1839,97.8
524.2505,64.7
524.275,948.1
524.3713,78411.4
524.4067,244.3
524.4419,298.4
524.6031,47.5
524.6731,182.1
524.6888,563
524.7443,45.5
524.8538,675.7
524.9023,85.3
524.9345,367.9
525.2531,174.1
525.3746,16532.1
525.5293,396.2
525.7962,84.7
526.0223,206.6
526.1147,410.6
526.3293,421.8
526.3752,321.5
526.4725,215.9
526.5164,88
526.6838,478.4
527.1591,453.2
527.2106,246.8
527.2444,85.6
527.2765,87.6
527.3159,44.6
527.3387,246.4
527.6136,392.4
527.7572,168.9
527.7936,115.7
527.9475,826.1
528.759,396.4
528.8827,8640.4
528.9544,1433.8
528.9871,79.4
529.0258,57.2
529.1235,855.9
529.4466,289.4
529.7318,20.8
529.7819,85.7
529.8514,94.4
529.8857,142.2
530.2983,52.8
530.321,864.5
530.3478,170
530.358,971.5
530.8037,141.3
530.8799,5137.2
531.0418,322.7
531.2206,2937.2
531.2494,1821.5
531.3266,464.6
531.5801,322.5
531.9373,481.9
532.1719,194.9
532.2802,1991.3
532.3379,9188.9
532.4091,457.1
532.8017,671
532.8771,384.8
532.9092,53.9
532.9654,2792.5
533.1174,52.8
533.3414,3548.6
533.4012,761.6
533.4461,86.3
533.5294,200.3
533.5923,53
533.7778,751.7
533.9168,144.6
534.1805,62.1
534.2961,148820.1
534.3175,462.2
534.3347,112.6
534.3654,293.2
534.3919,145.2
534.4388,249.4
534.4557,134.5
534.4916,214.6
534.5675,180.6
534.6411,19.7
534.7417,153.5
534.7768,169.8
534.8993,28657.8
534.9146,219.1
534.9245,89.3
535.2994,33887
535.4595,53.4
535.5224,820.9
535.8874,49.2
535.9088,165.4
536.2945,7772.4
536.3278,207.7
536.8966,16260.5
537.1387,107.6
537.299,934.3
537.4476,87.3
537.4938,68.3
538.2099,167.3
538.3649,114.1
538.3835,396.2
538.8361,817.2
538.8943,1655.8
538.9106,2762.9
538.9823,1612
539.0669,394.3
539.0977,804.7
539.237,114.3
539.5306,270.5
539.7035,298.7
539.7414,342.1
539.9317,23.4
540.0085,50.6
540.3057,881.3
540.4038,21.2
540.9089,1039.6
540.9557,51.1
541.2842,163.2
541.3074,398.3
541.4978,377.1
541.8949,106.6
541.9306,21.7
541.9551,55.6
542.0531,46.9
542.1994,64.2
542.2611,152.9
542.3221,183058.2
542.4101,50.6
542.5956,520.1
542.6203,46.7
542.7152,88.2
542.7294,371.1
543.0832,131
543.3255,44631
543.3457,705.3
543.4401,20.8
543.5829,288.7
543.6741,323.7
543.8607,97.4
543.8796,711.5
544.3378,184239.7
544.4045,46.5
544.6325,58.2
544.8555,94.6
544.9283,707.8
545.0082,109.5
545.1249,51.1
545.1498,839.4
545.1705,166.8
545.3412,46053.5
545.4543,868
545.4959,44.8
545.5822,463.7
545.7863,762.1
545.9424,108.4
545.9956,51.2
546.1583,133.1
546.2895,724.7
546.3533,147069.3
546.428,20.4
546.6521,648.6
546.7161,250.6
546.7865,78.2
546.8407,88.9
546.854,410.4
546.926,214.6
547.2433,649.1
547.2535,129.4
547.3566,36134
547.6326,89.4
547.7783,190.6
548.26,43.5
548.3278,93
548.3601,3515.4
548.499,448.7
548.7211,61.6
549.3286,223.9
549.5124,51.9
549.5973,61.7
549.9231,246.5
549.9957,24.1
550.069,172.7
550.3886,102.7
550.4365,118.2
550.8186,745.1
550.8737,2685
551.0291,60.5
551.0879,72.1
551.1093,505.2
551.4842,236.5
551.5303,100.9
551.7104,171.6
552.382,211.4
552.7063,778.9
552.7844,51.3
552.8704,1891.3
553.4723,187.6
553.6477,673.2
553.8024,428.3
553.8922,397.4
553.9275,513.4
554.0576,79.6
554.2794,137.1
554.33,955.9
554.8906,154.3
554.8967,191.8
554.902,218.6
554.941,291.9
554.9982,600.9
555.0016,561.4
555.1632,121.6
555.5484,170.9
555.6641,351.4
555.7772,863.6
555.9635,78.5
556.1153,817
556.3573,369.2
556.5311,622.7
556.6921,351.2
556.8052,237.4
556.8996,432
557.0065,71.7
557.1579,152.1
557.1651,74.1
557.2582,80
557.3657,176.8
557.382,868.7
557.608,243.3
557.9209,902
558.2487,169.6
558.2961,50348.3
558.5738,190.4
558.7565,307.4
558.8812,47.5
558.9321,182.7
559.0135,430.3
559.0381,84.6
559.2996,8413.3
559.6008,528.6
559.6437,716.5
559.7728,407.8
559.8406,326.2
560.0103,343.9
560.0439,571.5
560.1182,68.7
560.1895,835.8
560.3118,44006.9
560.4057,435.8
560.6831,386.9
560.9358,59.7
560.9675,46.4
561.0168,72.3
561.0335,230.5
561.0628,53.2
561.1428,366.7
561.315,7453.9
561.4132,2845.4
561.5149,270.4
561.5355,243.1
561.5961,54.3
561.7058,226.6
561.7741,52.4
562.0102,1775.7
562.1282,97.3
562.1839,386.4
562.3102,1553.8
562.3275,31646.4
562.3622,236.9
562.3982,48.1
562.5965,716.5
562.8496,88.2
563.0167,92.4
563.0817,81.8
563.2956,317.7
563.3307,8332.2
563.893,200.3
564.2212,267.5
564.2819,213.3
564.3066,1211.5
564.5175,191.4
565.0414,425.9
565.4874,194.1
565.5503,117.7
565.5825,204.7
565.6542,313.2
566.2571,794.7
566.3221,49874.2
566.5688,815.4
567.102,325.3
567.3257,13623.2
567.3974,223.1
567.8317,807.2
567.9059,847.1
568.0301,798.8
568.2471,115
568.338,16804.8
568.452,153.2
568.5114,71.5
568.5963,684.2
568.729,78.5
568.8193,101.8
568.9478,230.9
568.9631,581.7
569.0304,424.2
569.1003,20.6
569.3415,4906.9
569.393,403.3
569.8871,87.6
570.1419,52
570.2475,252.2
570.3567,1130.7
570.4418,179.4
570.4695,413.6
570.5914,183.4
570.6734,250.8
570.8675,4534.1
570.9604,158.8
571.0338,1412.6
571.1055,91.5
571.4323,176
571.449,540.6
571.6666,312.7
571.7326,57.4
572.0143,184.3
572.0263,124.4
572.3019,472.4
572.4963,133.6
572.8641,4390.1
573.4108,20.6
573.766,193.2
573.948,49.9
574.0723,56.3
574.2831,183.1
574.4074,50.2
574.8602,833
574.9992,85
575.0325,334.4
575.1838,407.1
575.4143,795.6
575.5038,2739.2
576.2811,6168.7
576.3466,49.4
576.52,758.5
576.5519,655.1
576.6237,402
576.8595,49.5
576.884,11792.3
577.014,42.4
577.3094,21.5
577.3261,380.4
577.4106,60.7
577.4608,106.1
577.5203,307.6
577.7705,820.7
577.8885,212.6
577.9381,69
578.0045,183
578.3169,59.7
578.5286,186
578.7961,93.5
578.8812,12358.3
578.9083,66.9
579.0158,1741.8
579.0964,73
579.1193,928.4
579.2995,90.3
579.4438,322.6
579.5232,287.2
579.6716,502.7
579.8847,474.8
579.9988,735.6
580.218,147.8
580.6358,207.3
580.7747,91.3
580.834,787.2
580.8567,311.7
580.879,2631.8
580.8963,1387.4
581.2535,53.4
581.5048,48.7
581.8779,457.5
581.9319,100.5
582.0259,797.8
582.1151,59.1
582.2023,113.8
582.2192,343
582.2324,122.7
582.2584,65.6
582.2768,771.3
582.296,12541.4
582.3278,449.3
582.3402,66.5
582.3494,430.6
582.3753,1206
582.4579,216.8
582.5103,74.2
582.6783,46.6
582.7483,950.9
582.7859,57.4
583.2624,515.3
583.2951,108.4
583.4829,193
583.8507,176.9
583.8596,160
583.9059,51.6
584.0364,354.8
584.1398,711.2
584.2621,67.6
584.3311,291.3
584.4158,85.8
584.4925,112
584.6396,360.7
584.6492,312.5
584.7076,54.2
584.8554,88
584.9882,67.5
585.1648,85.7
585.2711,6490
585.3045,245.7
585.3507,52.1
585.4486,832.2
585.5152,232.8
586.0206,65.1
586.0715,56.5
586.2733,1020.5
586.3097,2693.8
586.496,257.9
586.8243,123.8
586.8415,2520.5
586.9131,2111.9
587.0112,188.9
587.6756,44.1
587.8304,54.9
587.925,107.5
588.0873,149.8
588.2214,143.9
588.2642,191.5
588.8382,1934.1
589.1015,84.8
589.3706,627.2
589.8024,933.1
589.9763,45.2
590.0166,606.9
590.3221,4617.4
590.4194,65.2
590.6509,44.3
590.703,75.7
590.7388,48.1
590.8347,486.5
590.9276,1120.1
591.0166,322.8
591.1409,134.2
591.1575,770.2
591.2019,110.7
591.2225,192.2
591.2828,389.5
591.2971,96.7
591.3288,462.9
591.3569,71.1
591.3988,79.1
591.614,44.4
591.9189,215.6
592.0615,104.6
592.0865,62.1
592.1972,527.9
592.3359,376.9
592.858,9833.3
593.6796,70.4
593.86,441.3
593.9668,83.2
593.9883,73.4
593.9993,615.6
594.0159,61.5
594.0725,725.1
594.18,297.9
594.1986,158.2
594.3258,220
594.3459,88.2
594.4448,145.3
594.5197,245.1
594.5532,24.5
594.7071,305.5
594.8551,6141.2
594.9877,551.3
595.0735,21.5
595.1656,77.6
595.3798,155.6
595.9177,86.7
595.9737,190.4
596.0516,76.7
596.2111,166.4
596.4421,164.1
596.7641,234.5
596.8517,2391.3
596.8713,792.9
597.1459,52.1
597.1828,64.8
597.4514,3829.5
597.4861,1874.2
597.7148,18.4
597.7644,146.2
597.8281,358.3
598.0007,471.9
598.371,229.9
598.4558,1620.7
598.4664,1466.6
598.8674,1118.8
599.2594,54.5
599.2902,367.6
599.4548,242.9
599.4684,676.9
599.9278,388.5
600.0129,359.4
600.2588,141.7
600.28,1605.4
600.3203,139.6
600.4035,172.3
600.4685,624.9
600.5115,394.9
601.0175,207.9
601.1471,24.8
601.4798,92.4
601.782,369.1
602.1659,221.6
602.2596,197.4
602.2941,881.9
602.3661,56.4
602.5383,49.6
602.6979,54
602.7226,26.5
602.8091,834.4
602.8878,509
602.926,757.7
603.1592,109.6
603.3326,281.6
604.149,512.7
604.3112,753.8
604.7631,322.8
604.8132,375.7
604.9783,322.1
605.3229,539.3
605.346,426.9
605.4411,806.7
606.2967,1495.7
606.5049,81.2
606.7568,106.4
606.9409,410.1
607.1704,458.7
607.2308,105.9
607.2521,62.1
607.3031,285.4
608.0101,58.7
608.2112,83.6
608.2693,84.8
608.6229,375.9
608.6807,453.9
608.7363,758.1
608.8327,1674.7
608.9203,640
608.957,95.1
609.0587,355.4
609.1477,55
609.3896,81.7
609.5502,110.7
610.1001,202.7
610.3087,1251.3
610.6884,79.1
610.831,1959.1
611.0064,391.6
611.0849,850.8
611.6081,720.9
611.6904,46.3
612.0745,95.4
612.1026,72.9
612.2964,368.2
612.5853,46.8
612.8271,510.4
612.9577,344.3
613.0394,68
613.2362,950.5
613.349,974.9
613.4345,49.6
613.6973,44.7
614.0581,210.1
614.1217,56.4
614.3253,69.6
614.3338,72
614.9723,95.3
615.0557,94.1
615.0902,301.1
615.1305,97.2
615.1858,112.4
615.2423,70.3
615.2608,73.1
615.3697,94.5
615.4571,313.7
615.7951,226.8
616.0276,70
616.1208,274.8
616.5473,18.4
616.6807,217
616.7181,197
616.817,148.4
616.8357,128.9
616.8893,81.4
617.4757,7112.8
617.6558,65
617.7495,772.9
617.798,130.6
617.99,156.3
618.0723,57.2
618.2104,99.1
618.4783,935
618.7014,47.4
618.7289,214.2
618.7428,152.6
619.1812,539.2
619.2162,55.1
619.3267,143.6
619.4905,3714.8
619.5066,327.5
619.9167,47.3
620.0416,881.1
620.375,255.8
620.5069,222
620.672,57.4
620.8174,24.7
621.2153,51.6
621.45,3321
621.4863,3568.9
621.9957,538.6
622.4477,112.5
622.4885,962.7
622.5772,772.6
622.6466,52.1
622.7251,113.7
622.834,847.4
623.1361,16420.3
623.3638,475.8
623.4695,1179.9
623.6887,61.8
623.7955,134.6
623.8249,512.4
623.995,199.5
624.0174,76.9
624.0606,400.1
624.0858,218
624.1399,2483.5
624.4479,93
624.473,365.5
624.754,43.8
624.861,64.2
625.4386,75.2
625.4737,984.9
625.4935,1065.7
625.7553,111.9
626.0809,95.4
626.3172,643.2
627.1227,53.3
627.4873,55.1
627.5082,532.8
627.5359,167
627.5974,46.4
627.6082,451.1
627.72,166.7
627.9513,220.5
628.0258,75.5
628.1858,369
628.3618,211.9
628.4098,776.8
628.5382,229.9
628.5573,83.4
628.8226,58.8
628.8796,102.1
628.9713,235.2
628.9891,788.4
629.0282,476.5
629.0563,72.9
629.1528,16813
629.3705,78
629.4601,295.7
629.7505,59.9
629.9093,239.7
629.9356,115.9
629.9838,1135.2
630.1414,52.3
630.1564,2568.7
630.4009,807.5
630.5703,113.6
630.8156,102.5
630.8561,148.8
631.0712,56.9
631.1291,255.8
631.1545,68.5
631.3724,238.5
631.4868,260.6
631.8287,367.7
632.0296,116.2
632.0565,263.3
632.1798,49.2
632.5001,55.1
632.5593,85
632.7499,934.3
632.8266,49.1
633.1484,19.8
633.3873,48.2
633.4173,46
633.4864,177.6
633.6528,44.3
633.7133,58.9
634.1025,60.8
634.1072,84.1
634.2175,301
634.4644,155.1
634.8225,200.1
634.8432,1158.8
634.8814,760.2
634.9654,261.5
635.2092,407.7
635.2418,53.3
635.8206,821.2
635.8868,297.6
636.087,350.4
636.1668,53.9
636.4258,870.7
636.6116,1334.4
636.8397,3350.2
636.9548,45.7
636.9864,167.3
637.0816,80.9
637.904,721
638.0391,779.4
638.1015,1172.5
638.2249,100.4
638.2528,285
638.32,218.1
638.4443,567.6
638.4817,106.9
638.8371,1426
639.1086,954.9
639.2145,52.7
639.695,878.2
640.1469,418.7
640.551,307.6
640.5661,850.9
640.9375,71.7
640.9431,82.3
640.9478,72.6
641.0395,719
641.2416,47.1
641.3773,779.3
641.9787,108.9
642.0398,182.9
642.1531,572.4
642.6318,72.4
643.0184,72.3
643.0908,251.6
643.3588,229.9
643.5302,134.9
643.8846,110.6
643.8901,111.3
644.0228,53
644.5899,398.4
644.7992,503.9
644.8713,776.7
644.8926,374.5
644.8988,419.3
644.9073,432.3
644.9858,164.6
645.1179,10125.6
645.3313,426
645.3781,81
645.4521,555.2
645.4687,238
645.4993,364
646.0564,748.5
646.1213,489.3
646.3119,134.2
646.4632,797.9
646.6583,88.5
646.9446,20.1
647.0229,114.4
647.0944,1910.8
647.1113,443.7
647.1648,99.1
647.2808,137.1
647.3239,59.2
647.3867,252.3
647.48,49.9
647.598,186.2
648.3235,191.3
649.1065,111.9
649.1766,51.6
649.4095,635.6
649.435,754.7
649.4816,63.7
649.5333,85.8
649.5648,56.4
649.6661,822.8
650.0142,128.5
650.4393,348.2
650.6111,68.3
650.8171,914.2
650.8541,756.3
651.135,38172.7
651.4998,116.5
651.7267,784.6
652.1387,6349.6
652.3288,304.1
652.3553,48.9
652.8144,3094.7
652.8826,265.5
652.962,43.6
653.1108,285.6
653.1529,304.6
653.4377,234.3
653.5193,143.4
653.9034,270.4
654.1482,51.8
654.3305,43.2
654.5311,22
654.5718,722.2
654.81,1413.6
654.8947,69.4
655.2864,114.9
655.9552,46.8
656.2572,461.5
656.549,50.1
657.0989,268.4
657.373,70.8
657.7386,421
658.0664,114.2
658.2345,332.5
658.9337,186.2
659.0454,433.9
659.0853,356.3
659.712,57
659.9575,141
660.0825,3527.4
660.313,19.4
661.0826,3062.6
661.0906,2874.2
661.1338,95.1
661.3441,50.5
661.4393,84.6
661.4678,208.2
662.0693,74.5
662.0752,82.3
662.0833,79.3
662.1883,76.4
662.261,371.7
662.6662,580.7
663.0681,229.4
663.0917,234.5
663.3696,99.3
663.4572,601
664.4537,182.6
664.4713,404.7
664.5658,46.1
664.8338,58.7
664.8806,68.8
665.1747,55.6
666.1636,389.2
666.244,24.7
666.4833,3555.4
666.6251,88.1
666.7905,424.4
667.0255,345
667.0997,18067.5
667.3964,226.2
667.4827,394.5
667.52,189.5
667.9561,149
668.1034,1518.9
668.1943,78.4
668.3963,481.4
668.546,509.7
668.6662,21
668.7883,1417.2
668.8923,185.2
669.0063,57.9
669.0756,135.7
669.2561,796.6
669.3646,163.1
669.7756,105.4
669.9235,166.8
670.1773,122.2
670.7092,43.2
670.7844,515.9
671.4794,66.8
672.053,556.4
672.4218,3375.9
672.508,23.4
672.5626,17.9
672.5834,48
672.7746,925.7
672.9998,177.2
673.0254,213.9
673.0873,431.1
673.1169,62154.8
673.248,50.8
673.5289,173.6
673.5794,836.2
673.6938,18.3
673.8861,501.2
674.0564,58
674.0971,715.4
674.1207,11624.3
674.3002,157.5
675.0716,54.1
675.0933,404.9
675.123,1214.5
675.3126,165.3
675.3616,100.4
675.4975,53.4
675.544,8517.4
675.7557,704
676.0477,5903
676.1896,243
676.5476,2892.6
676.6039,355.4
676.8319,24.9
677.0557,2343.2
677.5863,125.4
677.7666,371
677.8737,591.7
678.0001,71.3
678.0471,66.5
678.0741,233.9
678.1139,498.1
678.7453,229.9
678.7821,344.5
678.9376,86.9
679.018,29
679.0562,309
679.0844,52.8
679.6008,71
679.8106,210.4
679.9074,48.9
680.0715,61.6
680.1121,153.3
680.2215,483.1
680.317,123.8
680.5174,64.3
680.5644,104
681.0073,46.4
681.031,86.2
681.4888,103.8
681.776,443.3
682.0356,138.3
682.0647,7823.8
682.4232,362.7
683.0184,102
683.0741,4818.5
683.2907,754.5
683.45,816.9
684.0391,97.9
684.0773,157.6
684.3257,846.2
684.5811,53.8
684.6742,92.9
684.7037,800.7
684.9282,53.4
685.049,76.8
685.0732,67.8
685.1038,100
685.4355,11323.8
685.8696,50.1
685.9606,696.5
686.1585,57.8
686.3382,68
686.4402,1823.2
686.5306,59.9
686.7569,428.2
686.7966,92.8
687.017,53.3
687.1466,136.6
687.3633,166.2
687.4116,1133.5
687.5716,47.9
687.7831,49.6
687.8063,232.6
688.0256,150.3
688.252,147.1
688.6987,56.1
688.7476,49.5
688.8116,137.1
689.0817,17394.9
689.0907,17907.6
689.2357,80.1
689.3284,223.1
689.372,458.1
689.4504,336.8
689.5001,70.5
689.5573,1464.4
689.7958,508.7
690.0242,96.6
690.0945,1588.8
690.4754,320.7
690.5633,351.2
690.8997,331.4
690.988,55.3
691.0127,58.5
691.2764,694
691.3504,113.9
691.4457,220.6
691.5248,144.8
691.9453,392.3
692.0208,841.1
692.4486,172.9
692.8022,566.1
692.9442,331.1
693.028,329.7
693.6857,340.2
694.0746,373.4
694.4101,285.7
694.4734,1054.7
694.675,20.6
694.7055,93.9
694.7372,68
694.7985,626.3
694.8182,100
695.0992,46403
695.447,212.1
695.5112,955.9
696.1029,8615.5
696.4019,71
696.6791,240
697.0256,51.1
697.0766,203
697.5264,16310.1
697.5714,738
697.9405,855.9
698.0291,2244
698.2908,348
698.3104,135.8
698.3969,371.5
698.5299,2519.5
699.0382,340.6
699.447,64.6
699.5294,766.3
699.6631,841.6
699.7416,79.2
699.8037,50.9
700.0523,120.4
701.0208,58.8
701.1688,277.4
701.3231,82.4
701.4103,800.5
701.4914,777.9
701.5601,17635.9
701.7871,117.9
701.9887,160.5
702.1948,48.2
702.2603,353.4
702.3418,564.5
702.5628,4101.7
702.7939,534.7
703.0368,248.1
703.0799,75.5
703.4495,76.4
703.5756,47642
703.6825,194.6
703.7782,130.7
704.0467,4454.7
704.0835,259.1
704.4476,788
704.5229,298.3
704.5789,21162.4
704.7562,454.3
704.7728,230
704.8544,789.4
704.9992,180.3
705.0557,5055.2
705.2311,119.6
705.5137,917.7
705.5816,2546.1
705.6341,689.8
705.9662,205.3
706.3961,250.1
706.469,895.3
706.5387,255.7
706.7194,45.6
706.9753,574.2
707.0339,97.4
707.2601,342.3
707.2937,266.2
707.3233,61.6
707.7755,20.8
707.8659,71.1
708.166,48.8
708.5148,75
708.8856,340.3
709.3836,49.6
709.4556,517.5
709.6664,74.6
709.8204,713.6
710.0671,52.6
710.698,81.3
711.0737,17499.1
711.1357,638.6
711.3605,119.7
711.5182,73.9
711.5416,3991.9
711.574,861.8
711.6844,60.1
711.7771,635.7
711.8582,65.1
712.078,1663.4
712.2022,91.2
712.2933,64.9
712.5462,900.3
712.5607,62.9
712.941,782.9
712.9962,253
713.1195,115.3
713.3509,455.8
713.4613,80.8
713.5006,1917.6
714.0032,976.5
714.0269,357.2
714.3698,405.9
714.4297,410.6
714.5565,20.1
714.7569,56.2
715.0097,107.1
715.0726,305.2
715.1058,677.5
715.3733,153.6
715.4645,772.7
715.6041,259.8
716.0045,64.3
716.0602,134.3
716.4861,1112.4
716.5882,232.2
716.7379,217.4
717.0123,49.7
717.0807,25324.1
717.2183,205.9
717.7088,435.6
717.8471,148.6
717.9136,81
717.9787,183.8
718.084,2203.9
718.1075,515.7
718.2125,64.7
718.3448,66.1
718.9193,98.2
719.0866,242.2
719.2565,338
719.3015,56.9
719.6022,189.7
719.8912,135.9
720.0211,803.3
720.3741,45.8
720.5523,282.6
720.5896,77
720.6656,336.2
720.8268,434.3
721.0347,79.3
721.0784,742.3
721.4786,30104.4
721.5738,79.6
722.0654,295.6
722.2801,229.8
722.3899,109.6
722.4819,9196
722.5956,19.7
722.6788,221.3
723.0174,152.2
723.3587,55.5
723.4944,7661.5
723.5417,26090.7
723.714,23.3
724.2375,76.7
724.3686,87.4
724.4964,1273.9
724.5451,7328.9
724.9676,382.9
725.0101,45.7
725.0821,285.1
725.5576,70402.7
726.029,2189.3
726.2655,203.7
726.3357,240
726.4716,136.7
726.5611,28523.3
727.0386,3515
727.5174,149.7
727.5644,5961.3
727.724,192.9
727.7374,170.4
727.963,662.6
728.0437,205.4
728.5207,2170.9
728.5629,331.4
728.5878,113.1
728.7446,354.7
728.8527,76.2
728.9084,105.9
728.97,51.2
729.4424,1046.4
729.4672,137.1
729.5923,5792.4
729.7329,157.5
729.7823,536.4
729.9341,540.8
729.976,87.2
730.1659,234.5
730.5395,1336.4
730.5935,1172.2
730.6755,96.6
730.885,230
730.9804,66.8
731.0221,192.4
731.0769,288.8
731.1432,118.9
731.5871,220.7
731.6064,2271.7
731.7184,47.3
732.2191,73.9
732.3131,362.9
732.3539,814.6
732.3824,168.6
732.5545,23991.7
732.6099,373.1
732.6989,62.2
732.7762,350
732.7996,208.1
733.0567,10775.9
733.5578,7612.7
734.0604,157.5
734.5704,2678.6
734.6111,207.5
734.8675,170.5
734.9148,60.5
734.975,60.6
735.1054,251.3
735.7936,42.8
735.8578,503.9
735.881,309.9
735.9844,439.4
736.0242,940.4
736.0591,200.6
736.3105,445.3
736.421,786.9
736.8534,842.9
736.986,67.6
737.2115,154.1
737.2548,192
737.4532,4894.8
737.5116,846.1
737.9132,183.6
737.9623,78.5
738.0662,280.9
738.2106,68.5
738.4509,635.1
738.8486,232
738.9195,845.3
738.9504,567.1
739.0019,254.6
739.0127,203.8
739.0627,14659.7
739.351,121.3
739.515,2370.1
739.5765,203.8
739.8583,357.5
740.0668,1300.4
740.4041,416
740.4668,238.1
740.5202,1139.2
740.5425,825.6
740.5602,954.6
740.8521,21.4
740.9205,151.6
740.9434,833.2
741.2311,506.2
741.5319,7318.1
741.8958,53.5
741.9704,433.9
742.0024,180.6
742.0847,105.4
742.1135,49.4
742.3266,399.9
742.3605,344.9
742.5347,4322.2
742.5753,5661.1
742.988,182.3
743.0971,92.1
743.5796,1021.1
743.8371,843.7
744.033,413.7
744.117,79.7
744.185,166.5
744.4609,256.3
744.5044,18.3
744.5538,3142.3
744.5916,5947
744.8951,80
744.9976,306.9
745.1597,1398.2
745.3521,454.2
745.4187,102.3
745.4783,23131.7
745.5534,573.9
745.5943,1350.6
745.9986,50.7
746.3069,109.8
746.3345,326
746.4601,53.4
746.4825,8336.8
746.57,1554.3
746.6077,768
747.0117,318.1
747.0449,252
747.2235,45.1
747.4931,4453.4
747.5743,323.5
748.0106,555.8
749.0196,3211.6
749.3065,65
749.5069,1927.6
750.0214,149.1
750.5162,199.3
750.9975,409.8
751.1356,43
751.2043,43.5
751.3349,19.6
751.4,50.1
751.5735,9082.8
751.6374,839.7
751.6592,302.1
752.0257,254.7
752.0842,38.7
752.5213,5199.5
752.5767,842
752.5951,503.4
752.7564,436.3
752.8383,65.7
752.9234,152.1
753.2835,57.3
753.5196,585.1
753.5898,1674.3
753.8285,163.9
753.9724,541.4
754.0377,110.2
754.1596,296
754.537,30351.2
754.6939,227.1
754.7506,342.2
754.951,83.7
755.0278,4616.9
755.0392,6393.5
755.109,83.4
755.4126,46.6
755.4919,99.3
755.5404,14487.2
755.5963,351.6
755.7217,335.7
755.8178,582.2
755.924,19.8
756.3024,366
756.484,863.3
756.5191,83.7
756.5543,21117.7
756.7399,128.3
756.9471,913.5
757.0265,96.1
757.1808,338.6
757.3562,177.9
757.3772,105.3
757.5576,10357.1
757.9636,144.7
758.0152,1083.4
758.0852,46.8
758.1689,172.4
758.1924,61.3
758.4786,114.9
758.5703,530224.6
758.6619,52.6
758.7951,787.4
758.9464,46.8
758.9749,61.1
759.0057,97.2
759.1954,181.9
759.5074,20.1
759.5737,235288.2
759.6389,530.9
760.3261,49.4
760.5869,219865.9
760.6438,172.7
760.7595,83.3
761.0443,7322.3
761.1275,47.9
761.3396,74.3
761.4532,2358.9
761.5897,100442.3
761.9513,658.4
762.1368,131.8
762.3791,52.6
762.4191,48.9
762.4563,455.6
762.5924,23552.8
763.0523,18.7
763.0842,100.5
763.111,158.9
763.5935,1635.3
763.6904,21.6
763.713,275.6
763.9823,143.8
764.3399,200.9
764.5573,5937.3
764.8227,184.9
764.8635,236.1
764.8883,56.6
765.0868,498.8
765.2036,111.9
765.2978,347
765.5645,527
765.7279,158.8
765.8146,293
765.9495,156.1
766.0378,153.3
766.153,72
766.247,200.3
766.2782,114
766.3926,51
766.5372,3812.7
766.5751,27019.3
766.7949,18.4
767.0219,540.9
767.3566,231.7
767.4757,366.7
767.5781,11563
767.6904,522.4
767.9571,314.5
768.4147,249.2
768.5521,5111.6
768.5914,29080.4
768.7318,395.1
769.4107,158.5
769.4794,1569.4
769.5947,10152.5
769.8087,50.2
770.1106,378
770.5101,3690.8
770.608,2893.5
770.8854,150.2
770.9948,1876.8
771.4994,509.2
771.5137,890.7
771.6112,332.1
771.6727,261.7
772.0296,110.6
772.5071,115.6
772.5862,9734.6
773.4902,851.4
773.5124,297.1
773.5889,1087.3
774.0273,56.4
774.1252,99.5
774.416,91.9
774.5172,682.5
774.5418,164.2
774.603,1703.7
774.6297,74.4
774.9339,50.1
775.073,87.1
775.1795,769.2
775.3422,685.2
775.6875,113.9
775.9577,203.8
776.391,656.7
776.5206,2051.7
776.6454,52.3
776.9656,72.9
777.0198,2462.5
777.5237,302.9
777.5787,796.8
777.7535,134.2
778.4175,234.5
778.5368,21943.6
778.5708,224.5
779.0263,51.3
779.0485,47.1
779.0896,68.6
779.4031,151.5
779.4841,205.2
779.5399,8912.7
779.6154,98.2
779.7064,204.6
779.9015,298.8
779.949,119.9
780.1302,77.5
780.1593,563.4
780.5524,580370.1
780.5889,371.1
780.6606,853.7
781.1176,753.7
781.3439,50.5
781.5559,258878.3
782.0412,703.1
782.0651,100.2
782.2288,53.3
782.3221,57.8
782.5132,855.7
782.5698,528819.5
782.6211,748.5
783.027,9479.4
783.4315,204
783.4718,342.6
783.5731,240774.8
783.6632,117.2
784.5871,155074.3
784.8158,443.3
784.8704,212
785.1914,116.4
785.5898,77664.2
785.6549,733.7
786.6023,149875.5
786.6579,229.6
786.8392,772.6
786.8641,172.4
786.9666,1079.9
787.2127,65.1
787.6055,68783.2
787.6757,76.5
787.8675,48.6
787.9356,125.1
788.5295,799.4
788.5574,16081.7
788.6054,9132
788.6203,10267.8
788.6789,95.6
788.8833,1144
788.9712,376.1
789.3146,250.6
789.4084,124.5
789.4835,114.4
789.5606,5876.5
789.6218,3983.8
790.4295,652.4
790.5478,1772.1
790.5737,27383.2
790.6189,52.5
791.2993,186
791.3684,117.8
791.4512,53.1
791.5772,11750.1
791.6736,218
791.6961,77.3
792.0014,109.8
792.5909,7144.4
792.7472,66.3
792.7852,220.5
792.9809,822.2
793.5945,1385.6
793.8731,93.7
793.9286,221.3
794.3078,872.5
794.5102,855
794.5687,6352.8
794.607,26494.9
794.9827,161.3
795.3841,72.4
795.5721,1394.7
795.6099,10992.2
795.8511,411.5
795.9396,90.8
796.1051,52.3
796.5262,118355.8
796.5854,6883
796.6227,5388.6
797.5296,51199.3
797.5883,709.1
797.6263,650.1
797.7877,117.2
797.9941,655
798.3818,42.4
798.543,43076.4
798.6091,730.4
798.6763,45
799.0006,1951.4
799.0948,91
799.1856,198
799.197,128.5
799.5459,18893.9
800.0713,97.4
800.5506,1622.5
800.7829,68
800.8315,262
801.2161,529.6
801.2274,282.8
801.2441,362.4
801.4028,67.7
801.509,161.1
801.5392,192.7
801.6216,103
801.6646,953.2
801.9513,631.2
801.9832,1194.7
802.0431,1251.3
802.0956,49.6
802.3862,178.1
802.5366,28463.4
802.6508,87.5
802.8743,2484.8
803.0228,57.6
803.056,998.8
803.3818,304
803.5403,8819.7
803.9368,106.6
804.0569,66.1
804.5524,361879.3
804.5979,96.2
804.6457,114.6
805.0687,549.5
805.5095,326.7
805.5558,171354.8
805.8196,325.3
805.9713,753.6
806.056,86.5
806.418,67.1
806.5695,223581.1
806.7027,61.4
807.4039,160.9
807.5042,254.2
807.5724,105551.7
807.9878,609.1
808.4003,3282
808.5852,173129.5
808.8836,393.8
809.0012,79
809.046,21
809.5882,81429.7
809.678,79.4
810.6023,102390.8
810.7684,79.1
811.6053,53733.6
811.6676,3166.1
811.7292,372.4
811.8278,87.2
811.9711,112.1
812.4824,72
812.558,590.8
812.6198,14824.5
812.6726,622.3
812.8433,112.3
812.9747,61.2
813.6221,6830.5
813.6859,3309
813.8145,631.7
814.1295,74
814.2826,130.1
814.5734,4517.4
814.6162,161.2
814.6893,1273.5
814.9778,233.1
815.2531,407
815.5776,1238.5
815.7035,57.6
815.942,123.2
815.9838,93.2
816.3087,347.8
816.5891,19914.1
817.4989,110.6
817.5916,9425.8
817.6732,2182.7
817.928,96.3
818.1837,68.3
818.3846,60.1
818.5106,5039.8
818.5686,4029.3
818.6068,4111.5
819.57,792.3
819.6068,458.2
819.9323,66.5
820.5264,71570.8
820.5832,55.9
820.6212,846
821.064,20.7
821.2392,414.2
821.5297,34767.8
821.626,282.9
821.7483,68.6
822.2616,124.3
822.3327,47.6
822.5432,29553
822.6301,189.1
823.5458,14200.9
823.5848,345.1
823.7936,179.2
824.1827,19.3
824.3383,18.3
824.4544,71.7
824.4882,497.8
824.5586,22489.6
825.1023,150.1
825.36,124.7
825.5617,9721.3
826.0207,51.9
826.3541,48.9
826.555,55.2
826.5733,382.5
826.6379,123.3
826.8886,60.3
827.0179,53.5
827.584,52.6
827.9265,683.9
828.2584,401.4
828.5103,81.8
828.5524,86462.1
829.5559,40304.5
829.6154,1162.8
829.6573,125.5
829.6933,318.8
829.9033,19.4
830.2833,68.6
830.5691,51150.7
830.9669,168.8
831.338,51.8
831.5716,26178.5
831.6253,55.9
832.4654,185.1
832.5844,77444.1
832.6348,53.8
832.8438,451
833.5873,40469.1
833.652,998.2
833.9281,46
834.3207,166.2
834.4337,336.4
834.543,528.3
834.6022,19302.7
834.6594,149.8
834.7949,334.5
834.8742,51.3
834.9356,1070.4
835.0743,921.7
835.167,410.9
835.6048,11982.2
835.6675,461.7
835.7109,46.7
835.7597,153.6
836.4845,90.1
836.5226,23.5
836.6174,1253.9
836.6729,264.8
837.1659,382.4
837.6196,246.6
837.7285,44.5
837.8749,96
838.2738,70.3
838.5134,1656.6
838.5451,51.9
838.6549,21.4
838.7046,79.1
838.765,244.2
839.0165,139.3
839.1899,196.6
839.2367,730.8
839.3138,406.6
839.3848,46.7
839.4215,80.1
839.5754,147.1
839.8153,625.3
840.1268,92.4
840.582,58
840.6975,1627.8
840.7291,1135.5
840.7498,146.4
840.8059,137.7
840.9011,536.6
840.9248,87.1
841.0075,73.2
841.1314,113.2
841.6677,112.3
842.2234,473.3
842.2912,344.3
842.3673,62.7
842.6781,228.1
842.7738,201.1
842.8482,90.5
843.1307,599.4
843.295,683.9
843.9903,119.3
844.5262,14061.3
844.9164,104.1
844.9969,146.7
845.1935,208.9
845.3478,124.1
845.4643,401.7
845.4845,192.6
845.528,3210.7
845.6767,215.7
846.0648,275.3
846.0876,126.8
846.2721,139.2
846.5429,6855.2
846.8554,125.2
846.9095,83.8
847.546,1579.9
847.6592,228.5
847.8076,141
847.8972,567.6
848.1169,109.3
848.2962,118.6
848.5578,14002.3
849.121,336.8
849.5603,4659.7
849.7958,115.9
849.8265,901.9
849.9348,99.8
850.438,44.1
851.0845,318.1
851.5429,332.2
851.6114,826.8
851.6629,180.8
852.0541,96.3
852.089,825.4
852.2225,172.9
852.3938,51.6
852.4052,56.4
852.555,771.7
853.257,20.5
853.6578,75
853.8049,74.6
854.1283,99
854.2037,1263.6
854.2343,181.6
854.2578,169.7
854.2891,389.5
854.569,87.3
854.7307,481.4
855.1434,1139.6
855.358,405
855.6158,408.3
856.584,3150.7
856.7503,874.6
857.0759,368.2
857.1414,170.1
857.589,1184.7
858.4613,378
858.4938,50.9
858.5598,327.6
858.6371,511.2
858.7032,144.1
859.6077,66
859.8967,394.2
860.2108,103.6
860.7004,231
861.6296,152.8
861.923,386.7
861.9506,215.3
861.9834,435.6
862.2533,50.9
862.4269,216.3
862.5064,136.6
862.6357,243.1
862.8998,277.5
863.3013,303.6
863.5703,841.8
863.8206,103.6
863.9807,21.7
864.2933,111.3
864.3296,168
864.3498,154.7
864.5061,386
864.7838,58.9
865.248,783.9
865.3299,19.9
865.3548,596.6
865.3834,88.4
865.524,718
866.1143,204.4
866.2401,189.1
866.3161,258.9
866.369,373.4
867.4453,804.6
867.6903,293.1
867.9955,48.1
868.0734,122.7
868.2474,65.8
868.2792,259.7
868.457,191.1
868.6701,166
868.6762,169.5
868.7555,579.3
869.0964,184.9
869.5364,169.4
869.6097,323.6
869.6573,163.2
869.7036,352.1
869.7594,1080.3
869.801,1552.9
869.8274,3037.9
869.8676,3367.5
869.9145,3966.9
869.9398,1537.2
869.9633,2192.3
870.0527,2595.8
870.0723,1334.7
870.0981,2155
870.1161,2458.3
870.1792,1224.2
870.2236,103.6
870.3428,301.6
870.4103,96.1
870.9737,262.9
871.3646,103.9
871.4567,1007.3
871.5793,76.2
871.9258,269.6
871.9547,2236.1
871.9945,340.6
872.5372,735.2
873.1529,141
873.208,81.4
873.3674,697.6
873.3755,738.6
873.3846,531.6
873.4939,315.8
874.5956,117
875.5542,182.7
875.8655,303.4
876.2003,19.7
876.2925,61.7
876.3943,144.9
876.5452,204.4
877.2616,106.3
877.4731,18.6
877.5577,178.1
877.6064,81.7
877.8915,218.3
878.2101,682.8
878.3741,571.2
878.5753,84.9
879.1816,29
879.2094,229
879.8593,105.5
879.9412,148.4
880.0261,61.4
880.1136,713.7
880.5495,143.7
880.5898,126.1
880.6695,19.7
880.7521,92.5
880.929,174.1
881.0031,1629.1
881.1674,62.3
881.229,1115.9
881.5671,68
881.9275,62.8
881.9592,52.1
882.1412,112.9
882.3084,108.4
882.3621,1462.9
882.6387,867
882.8041,63.4
883.0063,724.9
883.0293,883.6
883.7955,201
883.9078,21.8
884.1739,229.9
884.2834,90.9
884.3302,319
884.4715,55
884.5992,232.6
884.8191,218.5
885.4842,53.9
885.7007,226.6
885.734,184.4
886.2373,157.5
886.2723,214.5
886.4256,119.5
887.1384,626
887.2494,63.1
887.3502,127.6
887.4129,211.8
887.6702,54.3
887.7132,545.5
888.0432,101.4
888.5271,170.1
888.7378,759.2
889.0777,310.8
889.1558,269.1
889.4888,159.8
889.6273,270.8
889.7006,517.7
889.8385,165.6
890.8233,84.4
891.0382,86.6
891.0797,85.3
891.5604,783.3
892.0629,149.3
892.1479,79.8
892.4756,282.8
892.8808,163.7
892.9183,57.8
893.0762,122.7
893.6417,127.1
893.8054,196.1
893.9282,109
894.7919,271.2
895.0828,183.8
895.0996,69.7
895.2585,60.7
895.6066,70.1
895.759,252.9
896.0542,151.8
896.4888,558.3
896.6913,280.3
897.2583,446.4
899.5205,339.4
899.9282,101.8
900.0013,674.9
900.0288,53
900.1208,1157.6
900.2349,738.2
900.4302,551.6
900.4563,456.2
902.2055,219.1
902.2416,262.4
903.1175,45.6
903.4919,73.4
903.675,166.7
903.9368,217.7
904.4899,99.9
904.9271,944.2
905.8784,437.7
905.9027,188
905.9216,240.6
906.098,228.6
907.0558,86.1
907.2672,50
907.5417,117.1
908.0325,363.3
908.127,649.6
908.2196,360.6
908.2529,19.2
908.5764,625.2
909.2579,172.4
909.775,152.5
909.8155,83.5
909.8834,182.6
910.0193,368.8
910.0574,385.6
910.4171,128.4
910.4466,290.3
910.7665,78.9
910.9737,757.9
911.3359,193.6
911.6313,3254.3
911.7418,58.7
911.9776,20.5
912.0586,66.3
912.3611,78.2
912.6024,77.5
913.4874,122.6
913.5778,637.8
913.8363,833.4
913.9576,210.9
914.0147,91.6
914.8862,122.1
914.9431,67.7
915.2635,87
915.3575,58.3
915.9242,920.5
916.0586,69.7
916.203,107.5
916.6385,110.2
916.816,82.7
917.0146,120.8
917.3713,332.4
917.4101,803.9
917.4498,304
917.4887,1376.3
917.5824,95.7
917.8235,603.3
917.893,55.4
918.1431,97.3
918.2249,785.5
918.422,153.7
919.0796,49.4
919.3343,77.6
919.5255,52
919.8037,820.4
920.2475,56.8
920.5721,104.7
921.0088,470.1
921.0284,61.8
921.1515,608.6
921.3525,20.9
921.5295,50
921.7631,595.3
921.8183,260.5
922.4166,112.7
923.0906,447.6
923.4257,1484.1
923.548,178.4
923.7058,161
923.9017,135.7
923.9448,69.3
924.7852,232.8
925.0006,103.3
925.2736,76.5
925.5355,176.2
926.4373,197.7
926.7411,99.1
927.316,117.6
927.3487,94.1
927.8688,76.4
928.222,88.3
928.6283,460
928.8235,162.2
928.9449,92.7
929.9237,46.8
930.1968,265.2
930.4679,341.4
930.6457,171.8
930.7396,141.1
930.9401,158.1
931.097,1987.7
931.6547,229.2
931.7416,121.5
932.2244,300.8
932.3486,117.1
932.7144,826.7
933.052,737.6
933.0847,245
933.2286,630.6
933.8106,762.7
934.1388,304.8
934.3629,105.1
934.4972,485
934.8163,65.8
935.1161,70.2
935.2089,305.7
935.6196,809.6
935.8998,66.7
936.3338,121.4
936.6439,224.8
937.0582,63.2
937.4271,921.3
937.5087,128.5
937.536,89.7
937.8077,83.6
938.0028,134.5
938.2185,215.8
938.9886,21
939.1722,124.1
939.2274,98.3
939.5068,188.4
939.6738,210.4
939.7459,244.6
939.7749,59.7
939.9286,258.9
941.082,136.8
941.2871,685.7
941.3204,66.8
941.4471,1183.1
941.5347,578.2
941.6032,161.2
941.724,73.4
941.8573,560.5
942.4675,90.2
942.4856,139
942.4944,148.8
943.1358,432.7
943.2303,90.4
943.3555,741.1
943.6069,440.5
944.0368,64.9
944.1858,299.4
944.193,304.4
944.2217,105
944.834,255.9
945.0185,135.8
945.0896,80.9
945.1605,67.5
945.84,56
946.2682,326.6
946.5661,171.4
946.8779,128.2
947.3218,285.2
947.5113,154.9
947.646,781.9
947.9387,723.1
948.3924,841.4
948.4504,1863.5
948.5113,1072.7
949.4772,514.6
949.5737,879.5
950.0843,447.3
950.1273,598.7
950.1958,60.8
950.5418,223.9
951.0699,143.7
951.1393,79.5
951.6451,67.7
951.7296,74.8
952.9015,61.2
952.9387,48
953.0255,161
953.2539,195.6
953.9414,220.9
954.144,196.9
954.1905,76.8
954.3029,286.1
954.7452,57
955.1009,54.1
955.2235,131.2
955.2695,169.8
955.3018,166.3
955.926,1605
956.5343,737.9
956.9618,139.4
957.0736,52.2
957.52,551.5
957.6843,21.4
958.3359,799.6
958.461,85.4
958.6115,296.7
959.1907,378.1
959.6696,174.1
960.9747,792
961.3322,53.4
961.647,403.6
962.0056,672.6
962.0282,60.7
962.2765,302.4
962.6476,151.9
963.0392,86.9
963.2008,518.7
963.4712,474.7
963.6483,265.6
963.8561,367.7
964.1155,286.9
964.5371,1375.8
965.0836,200.3
965.1377,1232.7
965.1872,115.2
965.2757,97.2
965.7989,323.6
965.9368,133.3
966.8929,73.4
967.2261,78.1
967.2798,265.9
967.4662,129.4
967.6746,1810.7
967.9527,179.5
968.5582,157.2
968.6647,592.9
968.8228,208.8
970.2334,136.3
970.3791,1673
971.673,456
971.8513,108.1
972.0105,49.9
972.6094,139.4
973.0323,894.7
973.5343,119.4
974.4307,991.7
974.458,811.1
974.7635,24.7
975.0696,332.3
975.1948,290
975.2572,60.8
975.3274,49.6
975.4353,60.4
975.555,1428.6
975.9158,705.2
976.5003,48.1
976.531,587.7
976.9899,969.9
977.2504,558.8
977.5387,50.3
978.1708,19.6
978.4746,449.9
978.5698,101.1
979.1579,248.8
979.1733,224.7
979.3694,1215.3
979.4448,334.5
979.6858,50.9
980.1603,224
980.2945,886.3
980.3444,57.3
980.721,241
980.7539,252.9
981.1319,878.6
981.2845,199.9
981.3502,62.6
981.3849,329.5
981.4756,104.9
981.7833,58.8
981.8877,264
982.9264,158.7
982.9844,563.4
983.3347,833.3
983.9097,142.9
984.5634,22
984.7344,800.5
984.8122,2132.2
984.952,427.2
985.3643,721
986.1764,443.5
986.2665,112
986.8096,799.1
987.0969,1624.2
987.5476,85.4
988.2148,434.7
988.9268,79.3
989.1426,542.9
989.2685,203.2
989.9994,225.6
990.6002,153.3
990.6323,204.9
990.6951,961.6
991.1658,779.7
991.3707,241.3
991.5097,69.3
992.0338,146
992.2651,823.8
992.5716,137.8
992.8829,382.5
993.3095,130
993.3516,135.9
993.715,194.1
993.8126,1043.6
993.9447,22.8
994.3322,110.7
994.4916,163
995.317,1530.9
995.9797,144.2
996.1472,143.7
996.2531,351.2
996.5463,779.6
997.0028,418.5
997.7508,172.9
997.7896,152.7
998.716,164.5
998.8568,65.7
999.0421,101.7
999.5608,1531
999.5907,111.3
999.8841,305.9
